timestamps,TP9,AF7,AF8,TP10,Right AUX
1574477753.657,-29.297,27.832,25.391,1.953,1.953
1574477753.661,-18.555,24.902,29.297,-4.883,25.391
1574477753.665,-3.906,13.184,21.973,-21.973,51.270
1574477753.669,4.883,19.043,20.020,-12.207,45.898
1574477753.673,-14.648,32.227,22.949,-21.973,9.277
1574477753.677,-30.273,40.039,27.832,-27.344,13.184
1574477753.681,-18.066,42.480,25.879,-9.277,35.156
1574477753.685,-2.441,35.156,20.996,10.742,38.086
1574477753.689,8.301,30.762,12.695,8.301,46.387
1574477753.693,-10.742,35.156,23.926,-16.602,28.320
1574477753.696,-33.691,32.715,45.410,-20.020,46.387
1574477753.700,-22.461,24.902,42.480,2.930,52.734
1574477753.704,-5.371,23.438,30.762,12.695,19.043
1574477753.708,-7.812,25.391,28.809,-10.254,-24.902
1574477753.712,-13.184,26.855,27.832,-24.902,44.434
1574477753.716,-15.137,21.973,25.879,-15.137,50.781
1574477753.720,-20.996,11.719,33.691,-8.301,54.688
1574477753.724,-14.160,24.902,48.340,-2.441,15.625
1574477753.728,-6.836,38.086,31.250,-5.371,-42.969
1574477753.732,-5.859,36.133,19.531,-13.184,22.461
1574477753.735,-20.020,33.691,41.992,-7.324,31.250
1574477753.739,-38.086,26.855,37.598,-0.977,-5.859
1574477753.743,-31.250,24.414,23.438,-1.953,-5.859
1574477753.747,-23.926,22.461,31.250,10.254,46.875
1574477753.751,-21.484,14.648,35.645,7.812,65.918
1574477753.755,-18.555,10.742,29.785,-22.949,-10.254
1574477753.759,-9.766,21.973,32.715,-22.461,-15.137
1574477753.763,-1.465,33.203,42.480,-6.348,-11.719
1574477753.767,-13.672,30.273,34.668,-16.602,-29.297
1574477753.771,-18.555,28.320,26.855,-21.973,-2.441
1574477753.775,-10.254,33.203,26.855,-8.789,1.465
1574477753.778,-13.184,39.062,24.902,-8.789,-2.930
1574477753.782,-20.020,36.621,22.949,-14.648,-24.902
1574477753.786,-7.324,34.180,25.879,0.977,18.066
1574477753.790,-9.277,34.180,26.367,-3.418,-20.508
1574477753.794,-14.160,32.715,24.414,-8.301,-37.598
1574477753.798,-10.254,27.344,19.043,-17.578,57.129
1574477753.802,-8.789,20.996,22.461,-26.855,74.219
1574477753.806,-7.812,23.438,23.438,7.812,23.926
1574477753.810,-11.719,20.996,15.137,8.301,17.578
1574477753.814,-12.207,18.555,11.230,-15.137,37.598
1574477753.818,-16.113,30.273,19.043,-13.184,22.949
1574477753.821,-14.160,39.062,28.809,-5.859,3.418
1574477753.825,-8.301,34.180,31.738,5.859,22.949
1574477753.829,-12.207,26.367,34.180,5.371,54.688
1574477753.833,-13.184,24.414,33.203,3.418,13.672
1574477753.837,-15.625,25.879,26.855,15.625,-30.762
1574477753.841,-22.461,26.855,26.855,2.441,-50.293
1574477753.845,-18.555,28.809,21.973,-9.766,2.930
1574477753.849,-22.461,28.809,15.625,4.395,34.180
1574477753.853,-13.184,28.320,25.391,6.348,4.395
1574477753.857,-5.371,22.461,40.527,0.488,15.137
1574477753.860,-20.996,20.996,37.109,-13.184,-15.137
1574477753.864,-17.578,24.414,22.949,-11.719,57.617
1574477753.868,-11.230,30.273,23.438,8.301,115.723
1574477753.872,-20.508,31.738,24.414,15.625,72.266
1574477753.876,-23.926,29.785,20.996,14.160,28.320
1574477753.880,-18.066,38.086,30.273,-0.977,6.348
1574477753.884,-9.766,37.598,34.668,-6.836,-21.484
1574477753.888,-8.301,24.902,21.484,-5.859,14.648
1574477753.892,-18.555,20.020,20.996,-14.648,30.273
1574477753.896,-32.227,22.461,24.902,-9.766,37.109
1574477753.900,-32.227,23.438,22.461,-8.789,48.340
1574477753.903,-14.648,22.461,29.297,-22.461,-4.883
1574477753.907,-1.953,23.926,27.832,-18.555,-14.160
1574477753.911,-13.672,29.297,17.578,-14.160,3.418
1574477753.915,-26.367,27.832,16.602,-37.598,20.996
1574477753.919,-22.461,32.715,22.461,-34.668,34.180
1574477753.923,-5.859,35.645,29.297,-22.949,50.781
1574477753.927,14.160,29.297,38.574,-27.832,29.297
1574477753.931,13.184,33.203,33.691,-27.832,5.371
1574477753.935,-6.348,41.016,19.531,-25.879,12.695
1574477753.939,-27.344,35.645,19.043,-8.789,-44.922
1574477753.943,-36.621,23.438,24.414,-3.906,-42.480
1574477753.946,-20.996,24.902,31.738,-4.883,76.660
1574477753.950,-12.207,25.391,26.367,-3.418,66.406
1574477753.954,-23.438,22.461,18.555,-0.488,39.062
1574477753.958,-29.297,25.391,29.785,-1.953,31.250
1574477753.962,-27.832,29.785,32.715,-10.254,40.039
1574477753.966,-14.648,39.062,30.273,-13.672,98.633
1574477753.970,-13.672,35.645,22.461,-31.738,94.238
1574477753.974,-14.160,30.273,19.043,-38.574,2.441
1574477753.978,-24.902,32.227,21.484,-31.738,-28.809
1574477753.982,-26.367,31.250,20.508,-31.738,3.418
1574477753.985,-9.766,29.785,25.879,-34.668,8.789
1574477753.989,-10.742,25.879,27.344,-25.879,25.879
1574477753.993,2.441,26.855,18.066,-23.926,20.996
1574477753.997,-3.418,34.668,11.230,-23.926,14.648
1574477754.001,-15.137,41.016,19.043,-21.973,26.855
1574477754.005,-4.395,43.945,31.250,-4.883,12.207
1574477754.009,7.324,38.086,30.762,14.648,-17.578
1574477754.013,-4.883,29.785,27.832,2.930,-32.227
1574477754.017,-20.996,30.762,26.855,4.883,-8.789
1574477754.021,-17.090,27.832,27.344,3.906,35.156
1574477754.025,-6.836,19.043,28.809,-12.695,41.992
1574477754.028,-1.953,15.137,19.043,-13.184,23.438
1574477754.032,-5.371,20.508,12.695,-11.230,12.695
1574477754.036,-14.648,24.902,18.555,-15.137,32.715
1574477754.040,-13.184,28.809,28.809,-2.441,28.809
1574477754.044,-9.766,32.227,35.645,13.672,42.480
1574477754.048,-13.184,29.785,39.062,12.207,39.062
1574477754.052,-11.719,31.738,43.945,16.602,0.000
1574477754.056,-8.301,35.156,46.387,11.719,73.730
1574477754.060,-0.488,28.809,39.062,-3.906,76.172
1574477754.064,4.883,26.367,36.621,9.277,39.062
1574477754.067,-5.371,27.344,31.250,-0.977,55.176
1574477754.071,-12.207,24.902,15.625,-34.668,83.496
1574477754.075,-16.113,25.391,15.625,-27.832,54.688
1574477754.079,-7.812,21.973,27.344,-7.324,44.922
1574477754.083,-3.418,25.391,28.320,5.859,39.062
1574477754.087,-6.348,37.109,25.391,-7.324,37.598
1574477754.091,-2.441,36.621,30.762,-26.367,71.289
1574477754.095,2.441,34.668,30.273,-7.812,-10.742
1574477754.099,10.254,34.668,23.926,22.461,-64.941
1574477754.103,15.137,33.203,21.484,27.344,26.855
1574477754.107,19.531,33.203,18.066,30.762,42.480
1574477754.110,23.926,36.133,17.090,41.992,28.809
1574477754.114,22.949,37.109,24.902,44.922,12.695
1574477754.118,21.973,41.016,27.344,43.945,31.250
1574477754.122,32.715,41.504,22.461,45.410,36.621
1574477754.126,53.711,45.410,29.785,49.316,28.320
1574477754.130,48.828,47.363,40.527,41.992,71.289
1574477754.134,28.809,35.645,37.109,28.809,46.875
1574477754.138,15.137,36.133,22.949,19.531,37.109
1574477754.142,10.254,45.898,25.879,16.602,-0.488
1574477754.146,17.090,43.945,33.203,8.789,-2.930
1574477754.150,14.648,45.410,29.297,16.113,24.414
1574477754.153,11.719,46.875,31.250,10.742,27.832
1574477754.157,0.488,39.062,42.480,-8.789,65.430
1574477754.161,-2.930,43.457,47.363,-5.859,38.086
1574477754.165,15.137,50.293,46.387,-4.395,1.953
1574477754.169,20.020,44.922,36.133,7.324,9.766
1574477754.173,-7.324,37.598,33.691,14.160,23.926
1574477754.177,-14.648,41.504,42.969,2.441,53.223
1574477754.181,4.883,44.922,41.016,7.812,38.086
1574477754.185,13.184,48.340,39.062,9.766,24.414
1574477754.189,11.230,48.828,39.062,2.441,-65.918
1574477754.192,-1.465,45.898,33.691,-2.930,-99.609
1574477754.196,-15.625,46.387,39.062,-0.977,-11.719
1574477754.200,-5.371,42.969,45.898,14.648,37.109
1574477754.204,11.719,41.016,44.434,14.648,9.766
1574477754.208,14.160,37.109,49.316,31.738,-28.809
1574477754.212,13.184,36.133,43.457,41.504,-11.230
1574477754.216,4.395,41.992,28.809,16.113,30.273
1574477754.220,-3.418,43.945,33.691,12.207,33.203
1574477754.224,3.418,42.480,40.527,31.738,51.270
1574477754.228,21.973,41.504,38.574,28.320,14.648
1574477754.232,24.902,41.992,35.645,11.230,25.879
1574477754.235,4.395,44.922,37.109,2.441,89.355
1574477754.239,-14.160,38.574,36.133,-1.465,-39.062
1574477754.243,-1.465,34.668,27.832,0.977,-36.621
1574477754.247,10.742,35.156,26.367,2.930,47.363
1574477754.251,-1.953,34.668,31.738,-1.953,0.977
1574477754.255,-6.836,34.180,37.109,-7.812,3.418
1574477754.259,-0.488,32.715,35.156,-5.859,18.066
1574477754.263,16.602,39.551,31.250,15.625,41.504
1574477754.267,27.344,44.434,25.391,37.598,49.316
1574477754.271,20.020,43.457,30.273,23.926,67.383
1574477754.274,10.254,45.410,38.086,18.555,75.684
1574477754.278,9.277,47.363,39.062,20.020,79.590
1574477754.282,8.301,40.039,40.527,10.742,102.051
1574477754.286,9.766,34.668,34.668,12.695,40.039
1574477754.290,10.254,30.762,26.855,5.371,57.617
1574477754.294,2.441,28.809,29.785,-0.488,103.027
1574477754.298,-4.883,36.621,26.367,17.090,75.195
1574477754.302,1.465,35.645,20.508,26.855,11.230
1574477754.306,17.578,34.668,20.508,12.695,28.320
1574477754.310,23.438,37.109,19.043,9.277,56.641
1574477754.314,14.648,31.250,16.602,17.578,44.434
1574477754.317,4.883,30.762,15.137,13.672,30.273
1574477754.321,6.836,34.668,23.926,8.789,56.152
1574477754.325,10.742,34.180,29.297,20.020,24.414
1574477754.329,8.301,30.273,24.902,23.926,-50.293
1574477754.333,0.977,25.391,20.996,9.766,27.832
1574477754.337,-2.930,21.973,18.555,4.883,31.738
1574477754.341,-2.441,19.531,18.555,8.301,25.879
1574477754.345,6.348,23.926,25.391,7.812,37.598
1574477754.349,16.602,33.203,32.227,33.691,16.602
1574477754.353,13.184,33.691,28.809,38.086,-9.277
1574477754.357,-5.371,31.250,18.066,9.766,-4.883
1574477754.360,-7.324,36.133,6.348,18.555,36.621
1574477754.364,17.090,31.738,6.836,28.320,28.320
1574477754.368,33.691,25.879,16.113,31.738,8.789
1574477754.372,17.090,29.785,28.320,34.180,11.719
1574477754.376,-10.742,30.762,34.668,12.695,-11.719
1574477754.380,-26.367,32.227,31.250,-4.395,38.086
1574477754.384,-27.344,30.762,24.902,8.301,26.367
1574477754.388,-9.277,31.250,20.020,46.875,-52.734
1574477754.392,-7.812,32.227,19.531,27.832,-29.785
1574477754.396,-8.301,24.902,25.879,9.766,-7.324
1574477754.399,-0.977,23.438,32.227,20.508,14.160
1574477754.403,-1.953,27.832,30.762,4.395,35.156
1574477754.407,-3.418,28.320,23.438,-1.953,61.035
1574477754.411,3.418,29.297,17.090,-4.395,33.691
1574477754.415,0.488,31.738,24.902,-6.348,19.531
1574477754.419,-7.324,32.227,24.414,-15.625,48.828
1574477754.423,-0.977,30.762,14.160,-10.742,64.453
1574477754.427,8.789,28.809,20.508,-7.812,40.527
1574477754.431,7.324,27.832,18.066,-12.695,3.906
1574477754.435,-20.508,20.508,19.531,-11.719,30.762
1574477754.439,-31.738,17.090,30.762,-31.250,63.477
1574477754.442,-12.695,27.832,33.691,-27.832,68.848
1574477754.446,-2.930,35.156,33.203,-7.324,52.246
1574477754.450,-1.953,37.598,33.691,-3.906,38.086
1574477754.454,-6.836,34.180,32.715,-20.508,43.945
1574477754.458,-15.625,24.902,34.180,-27.344,31.250
1574477754.462,-12.695,29.297,30.273,-2.930,13.184
1574477754.466,-11.230,36.133,18.066,0.977,0.000
1574477754.470,-12.207,30.273,10.742,-21.973,1.465
1574477754.474,-8.789,25.879,8.301,-26.367,-19.043
1574477754.478,-17.090,26.855,21.973,-27.832,65.430
1574477754.482,-13.672,32.715,34.180,-22.461,95.703
1574477754.485,-4.883,30.273,32.227,-19.531,4.395
1574477754.489,0.000,23.438,26.367,-25.391,-23.438
1574477754.493,-1.465,27.344,20.020,-21.484,13.672
1574477754.497,-22.461,30.762,21.973,-9.766,29.297
1574477754.501,-31.738,34.668,25.879,-13.672,18.555
1574477754.505,-15.137,32.715,24.902,-24.902,46.387
1574477754.509,-1.465,34.668,26.855,-3.418,4.395
1574477754.513,-6.836,37.109,29.297,3.418,18.066
1574477754.517,-24.414,31.738,22.949,-5.859,42.480
1574477754.521,-19.531,32.715,17.090,6.348,0.977
1574477754.524,-3.906,38.574,19.531,12.695,17.090
1574477754.528,1.953,35.156,23.926,0.488,46.387
1574477754.532,-0.488,29.297,24.902,-17.090,62.988
1574477754.536,-7.812,27.832,34.668,-18.066,37.109
1574477754.540,-18.066,26.367,40.039,-6.836,25.879
1574477754.544,-23.926,19.043,30.273,-18.555,53.711
1574477754.548,-14.648,27.832,25.879,-14.648,69.824
1574477754.552,-14.648,51.270,26.855,14.648,66.406
1574477754.556,-23.926,44.922,11.719,-14.648,21.973
1574477754.560,-19.043,26.855,12.695,-27.344,17.090
1574477754.564,-2.441,29.785,30.762,-3.906,7.324
1574477754.567,16.602,45.410,31.250,-16.113,-12.695
1574477754.571,6.836,44.922,20.020,-15.625,6.348
1574477754.575,-4.883,45.898,10.742,-25.391,-14.160
1574477754.579,-1.465,53.223,19.531,-37.109,-6.348
1574477754.583,-9.766,44.434,26.855,-21.973,-4.395
1574477754.587,-5.371,40.527,19.531,-10.254,-27.832
1574477754.591,-4.883,36.133,23.926,-14.160,6.836
1574477754.595,-16.602,28.320,22.949,-22.461,41.016
1574477754.599,-21.973,22.949,17.090,0.977,31.738
1574477754.603,-25.879,20.508,15.625,5.371,-8.301
1574477754.606,-6.348,26.367,9.766,-11.230,35.645
1574477754.610,1.465,30.762,14.648,-1.953,92.285
1574477754.614,-13.672,35.645,18.066,-5.859,24.902
1574477754.618,-21.484,38.574,24.902,-22.949,-1.953
1574477754.622,-23.926,34.668,21.973,-19.531,6.348
1574477754.626,-18.555,31.250,15.137,-2.441,34.180
1574477754.630,-1.953,32.227,19.043,-10.742,41.016
1574477754.634,1.953,25.391,28.809,-19.043,28.320
1574477754.638,-7.324,20.996,39.062,-15.137,41.504
1574477754.642,1.953,32.715,33.691,-5.859,77.637
1574477754.646,7.324,34.668,22.949,6.836,67.871
1574477754.649,0.488,27.832,19.531,10.742,40.039
1574477754.653,-2.441,29.785,27.344,-12.207,16.113
1574477754.657,-1.953,33.203,27.344,-14.648,53.711
1574477754.661,-12.695,36.133,17.578,10.742,37.598
1574477754.665,-16.602,37.598,20.020,11.230,-16.602
1574477754.669,-6.348,39.062,32.715,-0.488,15.137
1574477754.673,-20.020,36.621,37.109,-11.230,20.020
1574477754.677,-35.645,28.809,30.762,-14.648,32.227
1574477754.681,-25.879,25.391,33.691,-8.301,61.035
1574477754.685,-15.625,29.297,35.645,3.906,42.480
1574477754.689,-7.812,32.227,23.926,-2.930,-1.953
1574477754.692,-1.465,38.574,16.602,-19.531,13.672
1574477754.696,-17.090,38.574,21.484,-21.973,28.320
1574477754.700,-29.297,23.926,30.273,-7.324,-4.883
1574477754.704,-13.184,18.066,29.297,-0.488,1.953
1574477754.708,-2.441,28.809,29.785,-12.207,33.691
1574477754.712,-14.648,33.203,39.551,-13.184,41.016
1574477754.716,-27.344,27.832,41.016,-15.625,18.555
1574477754.720,-20.996,24.414,36.133,-21.484,-7.812
1574477754.724,-14.160,23.438,30.273,-14.160,36.621
1574477754.728,-10.742,22.461,26.367,8.301,48.340
1574477754.731,-9.766,21.973,31.738,-3.418,39.551
1574477754.735,-24.414,23.926,26.855,-27.832,23.438
1574477754.739,-34.668,26.367,22.949,-21.484,0.488
1574477754.743,-12.695,29.297,41.992,-13.184,10.254
1574477754.747,4.395,26.367,47.363,-0.977,1.953
1574477754.751,2.441,23.926,34.668,3.418,-62.988
1574477754.755,-3.906,26.855,33.203,-5.859,-67.383
1574477754.759,-12.207,30.273,41.016,-8.301,-57.617
1574477754.763,-1.953,35.645,41.992,-12.207,-19.043
1574477754.767,15.137,34.180,42.480,-14.160,64.453
1574477754.771,21.973,31.738,42.480,-6.836,-12.695
1574477754.774,16.113,36.621,40.039,-1.465,-77.148
1574477754.778,-4.395,35.156,35.156,-15.137,-25.879
1574477754.782,-7.812,33.203,23.438,-16.113,28.809
1574477754.786,0.000,29.297,29.297,-5.859,54.199
1574477754.790,-9.277,26.367,35.156,-18.066,33.691
1574477754.794,-30.273,30.762,28.809,-17.090,41.016
1574477754.798,-38.574,33.691,30.762,-12.695,-6.836
1574477754.802,-24.414,36.133,32.227,-15.625,-0.488
1574477754.806,-15.625,34.180,31.738,-2.930,76.660
1574477754.810,-13.184,35.156,28.809,12.207,31.250
1574477754.814,-16.113,35.156,27.344,8.789,-11.719
1574477754.817,-20.020,28.320,36.133,-0.977,-4.395
1574477754.821,-13.672,27.832,30.762,-1.953,37.598
1574477754.825,-12.207,33.203,16.113,-8.789,57.617
1574477754.829,-16.602,34.180,21.484,-20.020,47.852
1574477754.833,-18.066,29.297,30.762,-17.090,39.551
1574477754.837,-31.738,26.367,27.344,-10.742,7.812
1574477754.841,-35.156,23.926,28.809,-28.809,-30.273
1574477754.845,-18.555,24.414,25.391,-31.738,-38.086
1574477754.849,-4.395,26.367,17.090,-19.531,37.109
1574477754.853,0.977,25.879,23.438,-7.812,65.430
1574477754.856,-2.930,31.250,27.344,-8.789,20.508
1574477754.860,-18.066,30.762,22.949,-33.203,64.941
1574477754.864,-18.555,29.785,24.902,-47.852,66.895
1574477754.868,-6.836,31.738,31.738,-41.016,-13.184
1574477754.872,-5.859,30.273,32.227,-30.762,25.879
1574477754.876,-16.602,32.715,30.273,-32.715,29.785
1574477754.880,-21.973,36.621,29.785,-26.855,-25.391
1574477754.884,-12.207,39.062,24.414,-11.719,2.441
1574477754.888,-4.395,32.715,22.949,-18.066,21.484
1574477754.892,-15.137,28.809,22.949,-18.066,28.320
1574477754.896,-29.785,29.785,17.578,-2.930,1.465
1574477754.899,-30.762,29.297,14.648,-10.254,-44.434
1574477754.903,-20.020,30.762,28.809,-28.809,2.930
1574477754.907,-20.020,30.762,22.461,-24.902,59.082
1574477754.911,-37.109,26.855,11.230,-18.555,59.570
1574477754.915,-52.246,24.902,26.367,-15.625,37.109
1574477754.919,-53.223,24.414,33.691,-28.320,30.762
1574477754.923,-41.992,20.996,31.250,-28.809,23.926
1574477754.927,-28.320,26.367,29.297,-2.441,-4.395
1574477754.931,-18.555,27.832,26.367,-5.371,-13.184
1574477754.935,-23.438,23.926,18.555,-17.090,38.086
1574477754.938,-18.555,38.086,24.902,-5.859,35.645
1574477754.942,-0.488,47.363,33.691,7.324,17.578
1574477754.946,-2.930,30.273,24.902,-4.883,60.059
1574477754.950,-7.324,28.809,23.438,-11.719,48.340
1574477754.954,-11.230,38.086,24.414,-8.789,46.387
1574477754.958,-23.926,40.527,17.578,-20.508,66.406
1574477754.962,-16.602,48.828,25.391,-14.160,34.180
1574477754.966,-5.371,45.410,30.273,-7.324,-15.137
1574477754.970,3.906,36.621,20.996,-12.207,42.480
1574477754.974,2.930,40.039,24.414,-2.930,70.801
1574477754.978,-3.906,42.480,35.645,-18.555,3.418
1574477754.981,1.465,38.574,39.551,-31.738,21.973
1574477754.985,-4.395,32.227,33.203,-19.043,58.594
1574477754.989,-0.488,34.668,17.090,-11.230,-12.207
1574477754.993,-1.465,32.227,12.695,-17.578,12.207
1574477754.997,-15.137,33.203,19.043,-27.344,18.066
1574477755.001,-20.996,34.180,20.508,-37.598,19.043
1574477755.005,-12.695,30.762,23.926,-34.668,22.461
1574477755.009,2.930,40.527,17.578,-7.812,-17.090
1574477755.013,-2.930,44.434,17.090,-6.348,-21.973
1574477755.017,-20.020,33.203,32.715,-16.602,21.973
1574477755.021,-21.484,27.344,41.504,-16.113,46.875
1574477755.024,-9.277,32.227,32.715,-17.578,27.344
1574477755.028,-5.859,30.273,18.066,-4.883,-15.625
1574477755.032,-11.719,29.785,23.926,-15.625,-18.555
1574477755.036,-23.438,40.527,35.156,-20.020,45.898
1574477755.040,-32.715,36.133,34.180,-4.395,46.387
1574477755.044,-15.625,31.738,26.855,-7.812,18.555
1574477755.048,-3.418,37.598,22.949,-10.254,45.898
1574477755.052,4.395,40.039,30.273,-8.789,76.172
1574477755.056,1.465,39.062,23.926,-7.812,73.730
1574477755.060,-31.738,39.062,17.090,-3.906,50.781
1574477755.063,-36.621,40.039,12.695,-14.648,37.598
1574477755.067,-14.648,39.551,9.277,-1.953,5.859
1574477755.071,-3.906,43.457,15.137,8.789,16.602
1574477755.075,-13.184,45.410,20.996,12.695,27.832
1574477755.079,-20.020,40.527,28.809,11.230,10.742
1574477755.083,-18.066,33.203,28.809,-0.977,-28.320
1574477755.087,-11.719,31.738,22.949,-4.395,38.574
1574477755.091,1.953,39.062,23.926,-1.953,61.523
1574477755.095,-1.953,39.551,27.344,-7.324,-30.762
1574477755.099,-10.742,42.480,21.484,-14.648,-23.438
1574477755.103,-0.488,47.852,21.484,-2.930,19.043
1574477755.106,8.301,43.945,20.020,-6.836,18.066
1574477755.110,11.719,43.945,20.020,-6.836,0.488
1574477755.114,7.324,43.457,21.484,3.906,-4.883
1574477755.118,-5.371,38.574,17.090,-12.207,12.695
1574477755.122,-15.625,33.203,18.555,-23.438,40.527
1574477755.126,-5.371,31.738,13.672,-19.531,64.941
1574477755.130,8.789,30.762,7.324,-6.836,54.199
1574477755.134,11.719,31.250,2.441,-8.789,8.301
1574477755.138,-7.324,30.273,4.395,-6.836,-6.836
1574477755.142,-9.766,31.738,16.602,6.836,39.551
1574477755.145,-1.953,29.785,18.555,-17.090,2.441
1574477755.149,-6.348,26.367,15.625,-27.344,2.930
1574477755.153,-8.301,25.879,4.395,-15.137,57.129
1574477755.157,-22.949,20.996,-0.488,-15.137,46.875
1574477755.161,-18.555,26.367,6.836,-14.648,25.391
1574477755.165,-14.160,27.344,4.883,-18.555,17.090
1574477755.169,-15.137,26.855,-0.977,-14.160,39.062
1574477755.173,-5.859,23.438,6.836,-2.930,2.930
1574477755.177,-20.020,18.066,7.324,-15.625,-8.301
1574477755.181,-26.855,30.273,-0.977,-2.930,-7.812
1574477755.185,-20.020,29.297,-1.465,6.348,-40.039
1574477755.188,-19.043,16.113,4.395,-10.742,11.719
1574477755.192,-21.484,14.160,5.859,-11.230,39.551
1574477755.196,-28.320,15.137,3.906,-17.090,-1.465
1574477755.200,-31.250,16.113,9.277,-10.742,34.668
1574477755.204,-30.273,25.879,16.113,-3.906,10.254
1574477755.208,-18.555,24.414,18.555,-3.418,22.949
1574477755.212,-5.859,24.414,16.602,1.465,20.996
1574477755.216,-10.254,29.297,9.766,3.906,-24.902
1574477755.220,-20.020,28.320,14.160,6.348,15.625
1574477755.224,-22.461,25.391,22.461,11.230,26.855
1574477755.228,-9.766,22.949,21.484,26.367,30.273
1574477755.231,-0.977,25.391,17.090,31.738,2.930
1574477755.235,-3.418,31.738,16.602,2.930,-27.344
1574477755.239,-12.207,36.621,24.414,-17.090,31.250
1574477755.243,-7.812,38.086,38.574,-15.625,63.965
1574477755.247,-0.488,37.109,43.457,-20.996,109.375
1574477755.251,0.000,35.645,22.461,-28.809,113.770
1574477755.255,-5.859,35.645,17.578,-21.973,74.707
1574477755.259,-9.277,32.227,21.973,-4.395,39.551
1574477755.263,-15.137,24.414,-8.789,-14.648,31.738
1574477755.267,-17.578,28.809,-15.625,-11.719,10.742
1574477755.270,-1.953,38.086,3.418,3.418,25.391
1574477755.274,-11.719,30.762,4.395,-14.160,37.598
1574477755.278,-23.926,26.367,-1.465,-20.020,17.090
1574477755.282,-17.090,34.180,12.695,-11.230,33.203
1574477755.286,-11.230,30.762,22.461,3.418,8.789
1574477755.290,-11.719,18.066,18.066,0.488,24.902
1574477755.294,-17.578,20.508,32.227,-8.789,-12.695
1574477755.298,-26.367,24.414,38.086,7.812,-27.344
1574477755.302,-34.668,18.555,29.785,-6.348,36.621
1574477755.306,-21.484,21.484,32.227,-6.348,63.477
1574477755.310,-4.883,28.809,32.227,8.301,33.203
1574477755.313,-19.531,31.250,18.555,-14.648,24.902
1574477755.317,-37.598,31.738,18.066,-28.320,52.246
1574477755.321,-29.297,32.715,38.086,-11.719,5.859
1574477755.325,-17.090,33.691,42.969,-16.602,-42.969
1574477755.329,-12.695,28.320,38.086,-30.273,-74.707
1574477755.333,-11.719,20.508,41.016,-15.137,-35.156
1574477755.337,-21.484,24.414,37.598,-12.207,16.602
1574477755.341,-27.832,29.297,29.297,-20.020,18.555
1574477755.345,-22.949,28.320,20.020,-19.531,10.254
1574477755.349,0.488,32.227,3.906,-19.043,102.051
1574477755.353,12.695,37.109,0.977,-24.414,106.445
1574477755.356,-9.766,38.086,19.043,-24.902,85.449
1574477755.360,-17.090,39.551,46.387,-21.973,62.988
1574477755.364,-15.625,38.086,51.758,-31.250,20.996
1574477755.368,-19.531,29.785,39.551,-14.160,38.574
1574477755.372,-17.090,31.250,41.016,-4.883,5.371
1574477755.376,-20.996,31.250,42.480,-18.555,-17.090
1574477755.380,-19.043,29.297,39.551,-16.113,12.695
1574477755.384,-3.906,34.180,38.086,-15.137,33.691
1574477755.388,-6.348,32.227,34.180,-6.348,17.578
1574477755.392,-19.043,35.156,36.621,-9.766,-8.301
1574477755.395,-22.949,40.039,41.992,-26.367,13.672
1574477755.399,-24.902,26.855,36.621,-25.879,25.879
1574477755.403,-20.996,20.020,44.434,-29.785,-4.883
1574477755.407,-7.812,28.809,51.758,-26.855,-0.488
1574477755.411,-5.371,30.273,42.969,-10.254,-11.719
1574477755.415,-22.461,25.879,41.504,-3.418,-22.949
1574477755.419,-18.555,29.297,40.039,-20.996,-19.043
1574477755.423,-12.207,31.738,39.062,-27.344,-4.883
1574477755.427,-19.531,33.691,36.621,-25.879,-4.395
1574477755.431,-20.996,38.086,37.109,-19.531,18.066
1574477755.435,-24.902,30.273,46.387,-19.531,42.969
1574477755.438,-23.926,32.715,48.828,-39.551,7.812
1574477755.442,-22.949,30.762,42.480,-36.133,0.488
1574477755.446,-14.648,21.973,41.992,-4.883,-20.508
1574477755.450,-4.395,21.973,52.734,4.395,-27.344
1574477755.454,-11.230,18.555,40.527,-11.719,0.000
1574477755.458,-28.809,22.949,30.273,-21.973,-3.906
1574477755.462,-28.809,32.715,51.758,-16.602,-22.461
1574477755.466,-17.090,34.668,58.105,-9.277,21.973
1574477755.470,-9.766,32.227,46.875,8.789,33.691
1574477755.474,-2.441,29.785,47.852,11.230,11.230
1574477755.477,-16.602,30.273,51.270,2.930,10.742
1574477755.481,-22.949,31.250,41.504,-10.254,70.312
1574477755.485,-15.137,27.832,31.250,-24.414,96.680
1574477755.489,-5.859,27.832,36.133,-3.906,23.438
1574477755.493,-3.418,25.879,36.133,4.395,52.246
1574477755.497,-6.836,27.832,38.086,-5.859,23.438
1574477755.501,-5.371,33.203,43.945,-12.207,23.926
1574477755.505,-8.789,27.344,52.246,-7.812,82.031
1574477755.509,-2.441,23.926,60.547,5.859,77.637
1574477755.513,-1.465,31.250,61.523,-2.930,106.445
1574477755.517,-8.789,38.574,50.293,-1.465,76.660
1574477755.520,4.395,39.551,37.109,12.207,-13.184
1574477755.524,8.789,36.621,24.414,-8.789,-52.734
1574477755.528,-5.371,34.668,29.297,-13.184,12.207
1574477755.532,-0.488,37.598,45.410,-2.930,45.410
1574477755.536,1.953,36.133,47.852,-10.254,17.090
1574477755.540,-3.906,34.180,48.828,-11.719,16.602
1574477755.544,0.977,34.668,41.992,-11.230,15.625
1574477755.548,18.066,43.457,41.504,-5.859,13.184
1574477755.552,12.207,45.898,44.922,7.812,13.184
1574477755.556,-11.230,32.715,34.668,-11.719,17.578
1574477755.560,-17.578,24.902,38.086,-17.090,1.953
1574477755.563,-11.230,26.367,38.574,-7.324,-31.250
1574477755.567,2.930,29.785,26.855,-20.020,-20.996
1574477755.571,-1.465,29.297,26.367,-11.230,35.645
1574477755.575,-5.859,38.574,39.551,4.395,58.594
1574477755.579,-0.977,39.551,39.551,-1.953,26.367
1574477755.583,-1.465,31.738,36.133,-9.766,33.203
1574477755.587,-5.859,30.273,35.645,-3.418,83.496
1574477755.591,-6.348,38.574,37.598,3.906,59.570
1574477755.595,-6.348,41.992,49.316,4.395,48.340
1574477755.599,-20.508,33.691,40.039,-2.441,82.520
1574477755.602,-17.578,26.855,29.297,-8.789,73.730
1574477755.606,-4.883,30.762,43.457,19.043,43.457
1574477755.610,-5.859,36.621,40.527,14.160,54.199
1574477755.614,-15.137,33.691,36.133,-14.648,42.480
1574477755.618,-20.996,31.738,46.387,-15.625,-28.320
1574477755.622,-20.020,33.203,52.734,-25.391,-39.062
1574477755.626,-8.301,29.785,51.270,-24.902,10.254
1574477755.630,8.301,31.738,47.852,-1.465,38.574
1574477755.634,-9.277,33.691,47.852,-1.953,6.348
1574477755.638,-28.809,30.762,38.086,-18.066,55.664
1574477755.642,-18.555,34.668,26.855,-10.254,113.770
1574477755.645,-7.324,31.738,32.227,-7.324,99.609
1574477755.649,-3.906,28.809,35.645,11.230,20.020
1574477755.653,-3.906,35.645,35.156,28.320,29.297
1574477755.657,-19.531,33.203,39.062,-0.977,20.996
1574477755.661,-35.645,19.043,46.387,-18.066,-40.039
1574477755.665,-22.949,22.461,48.828,-9.766,7.324
1574477755.669,-9.766,37.109,40.527,-7.324,56.152
1574477755.673,-16.602,38.086,24.414,-14.160,44.434
1574477755.677,-20.020,31.738,24.414,-25.391,-4.395
1574477755.681,-18.555,29.297,41.992,-23.926,6.836
1574477755.684,-14.648,27.832,41.504,-6.348,12.695
1574477755.688,-6.836,32.227,37.109,2.441,30.762
1574477755.692,-10.742,33.203,39.551,-15.137,56.152
1574477755.696,-20.508,34.668,30.273,-9.277,82.031
1574477755.700,-26.855,39.062,24.902,-9.766,-4.395
1574477755.704,-27.832,37.598,29.785,-27.344,-59.082
1574477755.708,-19.043,39.551,36.621,-9.277,38.086
1574477755.712,-14.160,38.086,36.621,-7.324,36.133
1574477755.716,-22.949,23.438,31.738,-29.785,19.043
1574477755.720,-21.973,22.949,33.203,-23.438,32.715
1574477755.724,-6.836,38.574,36.621,-17.090,39.062
1574477755.727,-1.465,38.086,33.691,-16.602,31.250
1574477755.731,-2.930,29.785,27.344,-7.324,2.930
1574477755.735,-9.277,33.203,26.367,0.000,20.508
1574477755.739,-26.367,39.551,35.645,2.441,-32.715
1574477755.743,-39.551,36.621,44.434,-11.719,-80.078
1574477755.747,-29.785,30.273,50.293,-10.254,-2.930
1574477755.751,-9.277,25.879,51.758,8.301,83.496
1574477755.755,-9.766,25.391,38.086,2.441,58.594
1574477755.759,-6.348,32.227,34.180,3.418,40.039
1574477755.763,-10.254,34.668,35.645,3.418,52.246
1574477755.767,-14.160,23.926,30.762,-14.160,46.387
1574477755.770,0.977,20.508,42.480,-17.578,-17.090
1574477755.774,1.953,26.367,50.781,-5.371,21.973
1574477755.778,-14.160,21.973,44.434,-4.883,38.086
1574477755.782,-26.855,19.531,37.109,-11.719,14.160
1574477755.786,-16.113,28.320,38.574,0.000,-18.555
1574477755.790,0.488,34.180,43.945,10.254,-7.324
1574477755.794,-1.465,34.668,35.156,9.277,-15.137
1574477755.798,-11.230,29.785,30.273,14.648,-41.504
1574477755.802,-10.742,27.344,34.180,16.602,-15.137
1574477755.806,-3.418,20.996,35.645,-2.930,4.395
1574477755.809,3.418,16.113,41.504,-1.465,31.738
1574477755.813,0.488,30.762,39.551,1.953,-8.301
1574477755.817,-13.672,41.504,43.457,0.977,-30.762
1574477755.821,-23.926,35.645,45.410,10.742,5.859
1574477755.825,-10.254,30.762,38.574,13.184,65.430
1574477755.829,8.789,26.367,30.273,6.836,59.082
1574477755.833,10.742,24.414,23.926,13.672,19.043
1574477755.837,-7.324,31.738,31.250,9.766,91.309
1574477755.841,-12.695,29.297,37.598,1.465,72.754
1574477755.845,-7.324,19.043,30.762,0.488,22.461
1574477755.849,-0.977,20.996,26.367,0.000,51.270
1574477755.852,7.324,38.086,35.645,4.883,18.066
1574477755.856,-6.836,38.574,40.527,5.859,-7.324
1574477755.860,-24.414,29.297,36.133,-6.348,-0.977
1574477755.864,-23.926,28.809,34.668,-5.859,61.523
1574477755.868,-13.184,26.855,39.062,8.301,75.684
1574477755.872,-8.301,25.391,31.250,0.000,10.742
1574477755.876,-7.324,20.508,23.438,1.953,50.293
1574477755.880,-10.742,19.043,35.645,10.254,108.887
1574477755.884,-22.461,27.344,28.320,1.953,88.867
1574477755.888,-20.020,33.691,21.973,5.371,49.805
1574477755.892,-6.836,34.180,37.109,10.742,48.828
1574477755.895,-23.926,31.250,39.551,-10.254,41.992
1574477755.899,-23.926,29.297,34.180,-13.672,12.207
1574477755.903,-11.230,21.973,30.273,-15.625,-11.719
1574477755.907,-17.090,16.113,30.273,-24.902,-16.602
1574477755.911,-11.719,26.855,29.785,-15.625,21.973
1574477755.915,-4.395,34.180,33.691,-12.695,47.852
1574477755.919,-15.625,29.297,34.180,-9.766,32.227
1574477755.923,-22.461,25.391,18.555,-15.137,31.738
1574477755.927,-8.789,27.344,14.648,-17.090,20.996
1574477755.931,-7.324,26.367,29.297,-12.695,-14.160
1574477755.934,-21.484,28.320,40.039,-24.414,0.977
1574477755.938,-38.574,30.762,39.062,-22.949,3.418
1574477755.942,-31.250,27.832,38.574,-15.137,6.836
1574477755.946,-6.348,34.668,40.039,-16.113,0.488
1574477755.950,-5.859,37.109,37.598,-6.836,-41.016
1574477755.954,-16.602,31.738,34.668,-8.301,0.000
1574477755.958,-20.996,29.297,26.367,-2.441,67.871
1574477755.962,-24.902,31.738,28.320,2.441,88.379
1574477755.966,-20.020,30.762,34.180,-8.789,18.066
1574477755.970,-2.441,30.273,34.180,-4.883,32.715
1574477755.974,-3.418,35.156,40.527,-2.441,43.945
1574477755.977,-7.324,33.691,37.109,-24.902,-2.930
1574477755.981,-8.789,34.668,33.691,-37.109,3.906
1574477755.985,-17.578,33.203,35.645,-28.809,10.254
1574477755.989,-11.719,25.391,27.832,-29.785,4.883
1574477755.993,-14.160,20.996,28.809,-41.016,20.020
1574477755.997,-31.738,21.484,23.438,-41.992,38.086
1574477756.001,-29.785,24.902,20.508,-26.367,33.691
1574477756.005,-19.531,27.832,34.668,-10.254,51.758
1574477756.009,-18.555,27.344,41.016,-5.371,81.055
1574477756.013,-24.414,21.973,36.621,-24.414,102.051
1574477756.016,-26.855,19.531,40.527,-24.902,27.344
1574477756.020,-25.391,21.484,45.410,-20.020,9.277
1574477756.024,-25.879,20.020,32.715,-25.391,68.848
1574477756.028,-14.648,20.020,30.273,-19.043,37.598
1574477756.032,-6.836,13.672,39.062,-7.812,33.203
1574477756.036,-11.719,-1.465,29.297,-7.812,67.383
1574477756.040,-12.207,6.348,29.297,-2.441,-21.484
1574477756.044,-11.230,20.508,38.086,4.395,-37.109
1574477756.048,-3.906,20.996,35.156,-8.789,-2.441
1574477756.052,10.742,25.391,32.715,0.977,-19.043
1574477756.056,2.930,32.715,35.156,-6.836,31.250
1574477756.059,-9.766,36.133,40.527,-35.645,86.914
1574477756.063,-5.859,32.227,37.109,-22.949,70.801
1574477756.067,-10.742,29.297,30.273,-17.578,22.949
1574477756.071,-9.277,29.785,38.086,-18.066,42.480
1574477756.075,-8.301,31.738,29.297,-24.902,51.758
1574477756.079,-15.137,36.133,24.902,-42.969,60.059
1574477756.083,-22.461,33.203,39.062,-28.809,53.711
1574477756.087,-26.855,25.391,37.109,-19.531,4.883
1574477756.091,-15.137,21.973,35.156,-20.996,-24.902
1574477756.095,-13.184,23.926,36.133,-29.785,-20.996
1574477756.099,-26.855,22.949,37.598,-51.270,-2.930
1574477756.102,-32.715,13.672,36.133,-40.527,42.480
1574477756.106,-23.926,16.602,40.039,-27.832,125.000
1574477756.110,-6.836,21.973,40.039,-21.484,58.594
1574477756.114,-13.184,20.996,34.180,-19.043,-6.348
1574477756.118,-36.133,20.508,25.879,-26.367,-30.762
1574477756.122,-36.133,19.043,19.043,-30.762,-20.020
1574477756.126,-19.531,20.996,31.738,-33.691,-0.977
1574477756.130,-2.930,20.508,34.668,-32.715,9.766
1574477756.134,-9.766,22.949,31.250,-36.621,49.805
1574477756.138,-27.832,25.879,39.551,-34.668,31.250
1574477756.141,-17.090,22.461,41.016,-35.156,48.340
1574477756.145,2.930,21.484,37.598,-30.273,30.762
1574477756.149,-0.488,19.531,37.598,-21.973,-31.250
1574477756.153,-3.906,26.855,41.992,-17.578,-47.363
1574477756.157,-3.906,25.879,33.691,-19.531,-8.301
1574477756.161,-7.324,22.461,18.555,-24.902,-18.066
1574477756.165,4.883,29.785,20.020,-31.738,-11.230
1574477756.169,15.625,25.391,33.691,-26.855,40.527
1574477756.173,4.395,20.020,39.551,-20.020,23.438
1574477756.177,-16.602,21.484,41.992,-24.902,19.043
1574477756.181,-23.926,28.809,41.016,-24.414,53.711
1574477756.184,-13.672,30.762,40.039,-19.531,65.918
1574477756.188,-11.230,29.785,39.551,-18.066,16.113
1574477756.192,-20.508,29.785,27.832,-13.672,-1.953
1574477756.196,-24.414,29.297,18.555,-5.859,73.242
1574477756.200,-31.250,28.320,23.438,-16.602,52.734
1574477756.204,-26.855,27.344,37.598,-21.973,12.207
1574477756.208,-6.836,30.273,45.898,-8.301,58.594
1574477756.212,-3.418,27.832,47.363,5.859,16.602
1574477756.216,-18.066,25.391,36.133,-6.836,-20.508
1574477756.220,-16.602,33.691,30.273,-19.531,-39.062
1574477756.224,-8.789,37.598,37.109,-0.977,34.180
1574477756.227,-0.977,40.039,33.203,13.672,106.934
1574477756.231,0.488,43.945,24.902,0.000,62.500
1574477756.235,-4.395,36.621,23.926,-7.812,66.406
1574477756.239,-9.766,23.438,26.855,-11.719,46.387
1574477756.243,-15.137,26.855,34.180,-20.996,-27.344
1574477756.247,-2.930,38.086,35.156,-11.230,-27.344
1574477756.251,11.719,41.504,31.250,-1.953,15.137
1574477756.255,11.719,46.875,24.414,-10.742,86.914
1574477756.259,-3.418,54.199,29.297,-18.555,100.586
1574477756.263,-10.742,42.480,32.227,-25.879,59.570
1574477756.266,-14.160,31.738,20.508,-29.297,-16.602
1574477756.270,-4.395,46.387,28.320,-1.465,-11.719
1574477756.274,-0.977,52.246,35.645,3.418,14.160
1574477756.278,-22.949,39.062,29.297,-20.996,0.488
1574477756.282,-18.066,31.250,22.949,-27.344,-4.883
1574477756.286,5.371,34.668,20.996,-25.879,33.203
1574477756.290,16.602,43.457,32.227,-5.859,48.340
1574477756.294,5.859,48.340,33.203,3.418,0.000
1574477756.298,-16.602,46.875,31.738,-15.625,-45.410
1574477756.302,-29.785,41.504,33.691,-20.508,-19.531
1574477756.306,-16.113,35.645,35.645,-19.043,14.648
1574477756.309,-10.254,34.668,35.645,-26.367,-38.086
1574477756.313,-22.949,35.156,26.367,-19.043,-29.785
1574477756.317,-25.879,39.062,14.160,-14.648,66.895
1574477756.321,-20.996,43.457,18.066,-15.625,108.887
1574477756.325,-6.836,34.668,28.320,-9.766,21.484
1574477756.329,8.789,31.250,32.227,-16.602,18.066
1574477756.333,10.254,36.621,30.762,-26.367,26.367
1574477756.337,5.859,36.133,31.738,-11.719,-30.273
1574477756.341,6.348,35.156,37.109,-7.812,10.742
1574477756.345,-2.441,31.738,35.645,-33.691,36.621
1574477756.348,-16.113,35.156,32.715,-44.434,25.879
1574477756.352,-15.137,37.598,34.180,-38.574,33.203
1574477756.356,-20.996,29.785,32.715,-39.062,66.895
1574477756.360,-26.367,30.273,34.668,-30.762,61.035
1574477756.364,-22.461,33.691,32.227,-27.344,9.766
1574477756.368,-24.902,30.273,27.344,-22.949,-15.137
1574477756.372,-31.250,23.926,31.250,-16.602,39.062
1574477756.376,-36.621,28.809,34.668,-38.574,40.527
1574477756.380,-28.809,36.133,36.621,-33.691,10.742
1574477756.384,-23.926,35.156,38.574,-16.113,-26.855
1574477756.388,-36.621,21.973,29.297,-36.133,26.367
1574477756.391,-38.574,17.090,25.391,-37.598,67.871
1574477756.395,-32.715,21.484,33.203,-28.809,-11.719
1574477756.399,-40.039,24.414,32.715,-30.273,-12.695
1574477756.403,-50.781,23.926,31.250,-20.996,9.277
1574477756.407,-43.945,21.484,31.738,-19.531,14.648
1574477756.411,-29.785,23.926,34.668,-23.926,4.883
1574477756.415,-28.809,31.738,42.480,-21.973,20.996
1574477756.419,-30.762,27.344,39.551,-9.766,62.012
1574477756.423,-27.344,25.391,31.250,-6.348,-7.324
1574477756.427,-20.996,29.785,31.738,-24.902,5.371
1574477756.431,-8.301,31.738,27.344,-22.949,48.828
1574477756.434,-3.418,33.691,22.949,-21.484,-13.184
1574477756.438,-10.254,27.832,28.320,-17.090,-46.387
1574477756.442,-7.324,23.438,32.715,-8.301,8.301
1574477756.446,11.719,30.762,35.645,-1.953,31.738
1574477756.450,20.996,27.344,39.551,4.395,-7.812
1574477756.454,6.348,21.973,49.805,8.789,41.504
1574477756.458,-5.859,33.691,52.246,11.230,61.035
1574477756.462,-11.230,38.574,26.367,0.488,1.465
1574477756.466,-5.371,37.109,17.090,-8.789,-8.301
1574477756.470,7.324,34.180,41.992,-16.113,28.809
1574477756.473,1.465,30.762,48.340,-12.695,41.016
1574477756.477,-19.043,30.273,45.410,-15.137,53.223
1574477756.481,-27.832,27.832,35.645,-22.461,34.180
1574477756.485,-24.902,26.855,21.973,-14.160,-17.578
1574477756.489,-19.531,21.973,27.832,10.254,-20.508
1574477756.493,-16.602,20.020,32.715,0.488,-22.461
1574477756.497,-33.691,19.531,27.344,-24.414,-23.926
1574477756.501,-43.457,20.020,29.297,-20.508,-53.223
1574477756.505,-31.738,23.438,41.992,-8.301,-31.738
1574477756.509,-16.113,20.020,51.270,1.465,-14.648
1574477756.513,-16.113,22.461,37.598,-7.324,-72.754
1574477756.516,-31.250,22.461,30.273,-10.742,-19.043
1574477756.520,-31.738,19.531,43.945,0.488,46.875
1574477756.524,-20.508,21.484,47.363,-4.395,43.457
1574477756.528,-13.184,20.996,49.316,-16.113,85.449
1574477756.532,-20.996,21.973,42.969,-16.602,47.363
1574477756.536,-20.020,32.227,36.133,-19.043,-47.852
1574477756.540,-21.973,33.203,37.109,-27.344,-33.203
1574477756.544,-26.367,29.297,27.832,-27.832,16.113
1574477756.548,-7.324,30.762,18.555,-3.418,-7.324
1574477756.552,13.672,37.109,22.461,12.695,11.230
1574477756.555,4.883,37.109,25.879,-12.695,72.266
1574477756.559,-16.602,34.668,25.879,-27.832,65.430
1574477756.563,-25.879,37.598,29.785,-24.414,27.832
1574477756.567,-14.160,34.668,33.691,-17.578,8.789
1574477756.571,7.812,43.457,38.574,-10.742,12.695
1574477756.575,6.348,51.758,27.344,-21.484,13.672
1574477756.579,-10.742,45.898,15.137,-20.020,20.996
1574477756.583,0.488,39.062,16.113,-8.301,19.043
1574477756.587,18.555,39.062,19.043,-11.230,75.195
1574477756.591,20.508,41.016,25.879,1.953,83.008
1574477756.595,7.324,36.133,31.738,1.465,17.090
1574477756.598,-7.812,27.344,31.250,0.977,7.324
1574477756.602,-22.461,23.926,15.137,20.020,27.344
1574477756.606,-27.832,20.508,11.719,7.324,25.879
1574477756.610,-15.137,30.273,27.344,-10.742,-37.598
1574477756.614,-13.672,25.879,38.574,-14.160,-40.039
1574477756.618,-38.086,16.113,41.992,-13.672,20.996
1574477756.622,-46.875,20.508,33.203,-1.465,2.930
1574477756.626,-26.855,24.902,25.879,6.836,-11.230
1574477756.630,-15.625,17.090,33.691,0.000,45.898
1574477756.634,-20.020,7.324,33.203,-14.160,61.523
1574477756.638,-29.297,9.766,36.133,-9.766,25.391
1574477756.641,-28.809,7.324,34.180,-2.930,28.809
1574477756.645,-10.742,6.348,28.320,8.301,75.195
1574477756.649,4.395,10.742,36.133,6.836,23.926
1574477756.653,10.254,24.414,40.039,3.906,-14.160
1574477756.657,19.531,36.621,22.949,7.324,8.789
1574477756.661,19.531,27.832,13.184,-8.789,33.203
1574477756.665,-0.977,15.625,29.297,-22.949,36.133
1574477756.669,-5.371,14.160,35.156,-18.066,-19.043
1574477756.673,1.953,19.043,33.203,-4.395,-5.371
1574477756.677,-3.418,20.996,39.062,-1.953,-12.207
1574477756.680,1.465,17.578,36.133,9.277,-40.039
1574477756.684,11.230,29.297,27.344,21.484,0.488
1574477756.688,-1.953,38.574,26.367,-10.742,49.316
1574477756.692,-25.391,40.039,25.391,-29.297,51.270
1574477756.696,-31.250,40.527,21.973,-18.555,48.340
1574477756.700,-35.645,36.133,21.973,-36.133,49.805
1574477756.704,-65.430,34.668,31.250,-76.660,-22.461
1574477756.708,-71.777,39.551,39.551,-78.125,-12.695
1574477756.712,-57.617,35.645,30.273,-81.055,60.547
1574477756.716,-70.312,39.062,25.879,-104.004,62.012
1574477756.720,-88.867,54.688,29.785,-118.164,11.719
1574477756.723,-96.680,52.734,19.043,-129.395,21.484
1574477756.727,-93.262,47.363,0.000,-131.348,41.016
1574477756.731,-84.961,47.363,-4.395,-128.906,68.848
1574477756.735,-78.613,56.152,2.930,-124.023,61.523
1574477756.739,-81.543,56.152,6.836,-108.887,-44.922
1574477756.743,-75.195,46.387,9.766,-94.238,-51.270
1574477756.747,-56.641,45.898,1.465,-85.938,16.602
1574477756.751,-41.016,41.016,2.930,-61.035,41.016
1574477756.755,-29.785,34.668,-0.488,-69.336,47.852
1574477756.759,-34.180,34.180,3.906,-83.984,37.598
1574477756.763,-43.945,31.250,15.137,-67.383,21.484
1574477756.766,-36.133,28.320,11.230,-63.477,32.227
1574477756.770,-18.555,28.809,5.371,-53.711,57.129
1574477756.774,-8.789,33.691,2.930,-36.621,25.391
1574477756.778,-9.277,38.086,5.371,-37.598,72.266
1574477756.782,-13.184,39.062,5.859,-42.480,102.539
1574477756.786,-8.789,39.062,16.113,-27.344,53.711
1574477756.790,5.859,35.156,25.391,-8.789,34.180
1574477756.794,11.230,29.785,23.438,-20.020,-10.742
1574477756.798,-4.883,28.809,25.391,-25.391,-50.781
1574477756.802,-14.160,26.855,14.648,-22.461,-39.062
1574477756.805,-5.371,24.414,-1.953,-39.551,-23.438
1574477756.809,6.348,28.809,7.324,-40.039,2.930
1574477756.813,9.766,27.832,24.414,-27.344,87.891
1574477756.817,3.418,27.832,25.391,-21.484,84.473
1574477756.821,-6.836,31.738,11.719,-21.973,27.832
1574477756.825,-3.906,27.832,8.789,-33.203,37.598
1574477756.829,10.742,22.949,24.414,-27.344,35.156
1574477756.833,12.695,26.367,35.156,-16.113,16.602
1574477756.837,-7.324,28.320,18.066,-30.762,40.039
1574477756.841,-28.809,25.879,0.977,-27.344,14.648
1574477756.845,-14.648,25.879,14.160,-10.742,51.758
1574477756.848,-8.301,23.438,17.578,-18.066,101.562
1574477756.852,-13.672,29.785,20.508,-29.785,49.316
1574477756.856,-5.859,35.645,25.391,-18.555,-39.062
1574477756.860,-10.742,31.738,14.160,-15.137,-15.137
1574477756.864,-22.949,20.508,12.695,-23.438,28.320
1574477756.868,-14.160,20.020,23.926,-16.113,37.109
1574477756.872,-1.953,32.227,22.461,-20.508,32.227
1574477756.876,-9.766,34.668,12.207,-36.133,38.574
1574477756.880,-17.578,32.715,11.230,-34.180,67.871
1574477756.884,-15.137,31.738,23.926,-31.738,26.855
1574477756.887,-0.977,28.320,25.879,-17.090,45.410
1574477756.891,10.742,31.250,23.926,-4.883,51.758
1574477756.895,-2.441,35.645,26.855,-36.133,43.457
1574477756.899,-11.719,30.762,18.555,-49.805,82.520
1574477756.903,-6.348,32.227,16.602,-44.434,71.777
1574477756.907,-4.883,35.645,8.789,-47.363,11.230
1574477756.911,6.348,32.715,6.836,-29.297,4.883
1574477756.915,-0.488,30.762,26.855,-18.555,63.965
1574477756.919,-16.602,27.344,31.250,-25.879,33.691
1574477756.923,-16.113,31.250,24.902,-36.621,11.719
1574477756.927,-8.301,40.039,26.855,-34.180,43.945
1574477756.930,4.883,45.410,36.133,-19.043,-1.465
1574477756.934,-4.395,38.574,29.785,-23.926,-23.438
1574477756.938,-24.902,28.320,4.883,-27.832,12.695
1574477756.942,-27.832,34.180,3.906,-25.879,13.672
1574477756.946,-18.066,39.551,5.859,-25.879,3.418
1574477756.950,-1.465,33.691,9.766,-7.324,-10.254
1574477756.954,3.418,30.273,22.949,-6.348,-12.207
1574477756.958,-1.953,41.992,25.879,-16.113,-11.719
1574477756.962,-10.742,42.480,26.367,-8.789,-21.484
1574477756.966,-13.672,31.738,23.926,2.930,20.508
1574477756.970,1.465,34.180,23.438,12.695,-14.160
1574477756.973,2.441,38.574,18.555,6.348,-58.594
1574477756.977,-9.766,39.062,10.742,-11.719,-9.277
1574477756.981,-8.301,27.832,5.371,1.465,32.227
1574477756.985,-8.301,24.902,8.301,17.578,21.973
1574477756.989,-2.930,34.180,15.625,4.395,61.523
1574477756.993,-1.953,39.551,25.879,6.348,73.242
1574477756.997,-20.020,35.645,35.645,1.953,19.043
1574477757.001,-28.320,30.762,34.180,-0.488,-27.832
1574477757.005,-21.973,36.133,40.527,7.324,9.766
1574477757.009,-21.973,39.551,33.203,-1.953,-1.953
1574477757.012,-23.926,40.039,20.508,-1.953,-9.766
1574477757.016,-24.414,39.062,20.508,11.230,48.340
1574477757.020,-26.367,37.109,28.320,0.488,80.566
1574477757.024,-24.414,30.762,37.598,-10.742,57.129
1574477757.028,-12.207,28.320,28.320,-7.812,70.801
1574477757.032,4.395,33.203,15.625,-2.441,32.715
1574477757.036,-0.488,40.527,33.691,8.301,-52.734
1574477757.040,-20.020,43.457,46.875,13.672,-15.625
1574477757.044,-32.715,37.109,31.738,-6.348,39.062
1574477757.048,-31.250,26.367,31.250,-20.996,8.301
1574477757.052,-16.113,22.949,33.203,-7.324,50.293
1574477757.055,-14.160,26.855,24.414,-7.324,120.117
1574477757.059,-22.461,31.738,30.273,-10.742,69.336
1574477757.063,-27.344,34.668,33.691,-10.254,32.715
1574477757.067,-30.273,24.902,31.250,2.441,22.949
1574477757.071,-5.371,20.996,33.691,6.836,-1.953
1574477757.075,2.441,25.391,29.785,-14.648,8.789
1574477757.079,-8.789,34.180,31.738,-12.207,31.738
1574477757.083,-6.348,34.668,33.691,1.953,17.578
1574477757.087,0.488,23.926,30.762,7.812,-0.488
1574477757.091,0.977,27.832,30.762,10.742,31.250
1574477757.095,-10.742,34.668,31.250,15.137,46.387
1574477757.098,-19.043,37.109,34.668,6.348,10.742
1574477757.102,-20.996,34.668,41.992,-20.996,-16.602
1574477757.106,-17.578,30.273,37.598,-18.555,5.859
1574477757.110,-4.395,30.273,26.855,-5.859,17.090
1574477757.114,-5.371,27.344,24.902,-20.996,32.227
1574477757.118,-8.789,31.738,34.180,-22.949,54.199
1574477757.122,-17.090,30.762,41.992,-13.672,7.324
1574477757.126,-30.762,21.484,38.086,-11.230,-44.922
1574477757.130,-21.484,32.227,29.785,-7.324,-19.043
1574477757.134,-14.160,37.598,25.391,1.953,24.902
1574477757.137,-17.578,32.715,31.738,-2.441,58.105
1574477757.141,-12.207,31.250,37.109,-25.879,75.195
1574477757.145,-18.555,26.367,40.039,-79.590,49.805
1574477757.149,-17.090,25.879,38.574,-133.301,27.832
1574477757.153,-3.418,34.180,32.227,-140.137,52.246
1574477757.157,-13.672,27.344,23.438,-136.719,44.922
1574477757.161,-24.414,22.461,23.926,-155.762,25.391
1574477757.165,-23.926,36.133,26.367,-157.227,-26.367
1574477757.169,-8.789,37.109,16.113,-126.953,-28.809
1574477757.173,1.465,36.621,23.926,-112.305,17.090
1574477757.177,-7.812,34.180,34.668,-124.512,-68.848
1574477757.180,-16.113,24.414,24.414,-124.023,-29.785
1574477757.184,-20.996,29.297,18.066,-104.980,75.684
1574477757.188,-12.207,40.527,27.344,-91.797,43.945
1574477757.192,-4.395,36.621,23.926,-98.633,48.340
1574477757.196,-6.836,35.156,20.996,-104.004,62.988
1574477757.200,-3.906,41.992,31.738,-106.445,28.809
1574477757.204,2.930,44.434,33.203,-100.586,35.645
1574477757.208,-1.465,33.691,34.668,-93.750,20.508
1574477757.212,-5.371,22.461,32.227,-93.262,14.160
1574477757.216,-13.184,40.527,29.785,-97.656,59.082
1574477757.219,-26.855,44.434,19.531,-94.727,69.336
1574477757.223,-18.555,37.109,9.766,-86.426,47.363
1574477757.227,-6.348,43.945,20.996,-67.383,-16.602
1574477757.231,-5.371,41.504,30.273,-57.129,-21.973
1574477757.235,-15.625,33.691,34.668,-68.848,33.203
1574477757.239,-18.555,39.551,36.133,-55.176,-6.836
1574477757.243,-16.602,39.551,31.250,-45.898,-20.020
1574477757.247,-18.066,35.156,32.227,-58.594,31.250
1574477757.251,-16.113,29.297,41.992,-63.477,41.016
1574477757.255,-23.926,24.902,33.203,-50.293,14.648
1574477757.259,-36.133,24.414,18.066,-41.992,-42.480
1574477757.262,-32.715,28.320,22.461,-46.387,-41.992
1574477757.266,-19.531,33.691,22.949,-43.945,-10.742
1574477757.270,-3.418,29.297,31.738,-36.133,11.719
1574477757.274,1.465,33.203,36.621,-28.320,30.273
1574477757.278,6.348,39.551,31.250,-28.320,44.434
1574477757.282,5.371,32.227,30.762,-35.156,50.293
1574477757.286,1.953,31.738,33.691,-41.016,-24.902
1574477757.290,19.531,39.551,32.715,-21.484,-35.645
1574477757.294,24.414,38.574,21.973,-10.742,-1.953
1574477757.298,11.719,28.320,19.043,-24.902,18.066
1574477757.302,2.441,19.043,23.438,-41.016,51.758
1574477757.305,-5.859,25.879,29.785,-42.969,49.316
1574477757.309,6.836,39.551,24.902,-31.250,54.199
1574477757.313,16.602,44.922,17.090,-19.531,77.637
1574477757.317,2.930,39.551,24.414,-15.137,62.988
1574477757.321,-13.672,34.180,14.648,-19.043,73.242
1574477757.325,-8.301,39.062,17.090,-22.949,77.148
1574477757.329,8.301,45.898,26.855,-0.977,31.250
1574477757.333,-5.371,37.598,27.344,-11.230,1.953
1574477757.337,-36.621,30.762,33.203,-38.086,0.488
1574477757.341,-50.781,36.133,35.645,-28.320,-5.371
1574477757.344,-47.852,36.133,38.086,-22.949,24.414
1574477757.348,-30.273,36.133,44.922,-23.926,70.801
1574477757.352,-20.508,29.297,52.246,-20.508,2.930
1574477757.356,-30.762,23.438,47.363,-18.555,-65.430
1574477757.360,-43.945,31.250,41.016,-22.949,-70.801
1574477757.364,-37.109,26.855,28.809,-24.414,-14.160
1574477757.368,-23.438,20.508,26.855,-23.926,22.949
1574477757.372,-23.926,27.832,30.273,-36.133,63.477
1574477757.376,-25.879,37.598,29.785,-42.969,85.449
1574477757.380,-29.297,39.062,34.668,-41.016,24.414
1574477757.384,-34.180,37.598,30.762,-42.480,22.949
1574477757.387,-25.391,32.715,25.879,-34.668,50.293
1574477757.391,-16.602,30.762,26.855,-28.809,51.758
1574477757.395,-17.578,27.832,19.043,-33.691,81.055
1574477757.399,-24.414,16.113,14.160,-29.785,38.086
1574477757.403,-23.438,28.320,23.438,-16.602,20.996
1574477757.407,-12.695,37.598,31.250,-21.484,45.410
1574477757.411,0.488,27.832,30.273,-25.879,57.129
1574477757.415,0.977,34.668,30.762,-25.879,27.832
1574477757.419,-7.812,38.574,23.438,-31.738,-23.438
1574477757.423,0.977,35.645,5.859,-29.785,6.836
1574477757.426,4.883,42.480,18.066,-14.160,30.273
1574477757.430,15.137,36.133,35.156,9.766,7.812
1574477757.434,12.207,23.926,39.062,-3.906,64.941
1574477757.438,-11.230,33.203,36.621,-20.508,59.082
1574477757.442,-23.926,41.992,29.785,-11.230,-15.137
1574477757.446,-21.973,38.574,26.855,12.695,-20.996
1574477757.450,-6.348,38.574,25.879,19.043,-10.742
1574477757.454,-5.859,33.203,26.367,-11.230,-0.488
1574477757.458,-10.254,27.344,20.020,-8.301,14.648
1574477757.462,-6.348,32.715,17.578,-6.836,23.438
1574477757.466,3.418,35.645,17.578,-12.207,22.461
1574477757.469,19.531,40.039,21.973,4.395,32.227
1574477757.473,29.297,40.527,23.926,-3.418,23.438
1574477757.477,18.555,39.551,20.020,-3.906,2.930
1574477757.481,13.672,49.805,24.902,1.465,23.438
1574477757.485,5.371,47.852,25.879,-13.672,53.711
1574477757.489,4.395,45.898,19.043,-6.836,92.285
1574477757.493,12.207,45.898,10.254,-4.883,108.887
1574477757.497,-1.953,37.109,6.348,-31.738,78.125
1574477757.501,-7.324,41.504,9.277,-37.109,69.336
1574477757.505,-11.719,42.480,13.672,-22.461,41.504
1574477757.509,-12.207,40.039,13.672,-20.996,2.930
1574477757.512,2.930,45.410,17.090,-16.113,46.387
1574477757.516,0.977,51.758,24.414,-19.531,8.789
1574477757.520,-10.254,51.270,20.020,-30.273,-13.184
1574477757.524,-19.043,42.969,6.836,-28.320,14.648
1574477757.528,-13.672,41.016,7.324,-14.160,27.832
1574477757.532,-0.977,38.574,18.555,-5.371,1.465
1574477757.536,-9.277,41.016,23.438,-3.418,-37.598
1574477757.540,-24.902,40.527,15.137,-27.344,23.926
1574477757.544,-24.414,37.598,5.371,-53.223,87.891
1574477757.548,-9.277,37.598,6.836,-32.227,19.043
1574477757.551,-6.836,35.645,14.160,-14.160,-23.438
1574477757.555,-11.719,36.621,17.578,-20.996,19.531
1574477757.559,-12.207,41.992,11.230,-35.645,-7.324
1574477757.563,-1.953,50.293,12.695,-32.227,-37.598
1574477757.567,14.648,50.293,14.160,-17.090,-20.020
1574477757.571,2.930,42.969,18.555,-13.184,25.391
1574477757.575,-15.625,39.062,19.531,-26.367,32.715
1574477757.579,-20.508,42.969,14.160,-35.156,8.301
1574477757.583,-21.484,41.016,13.672,-22.461,-1.953
1574477757.587,-19.531,35.645,13.672,-4.883,-18.555
1574477757.591,-11.719,35.156,17.090,-18.555,-4.883
1574477757.594,-2.441,39.551,30.273,-23.926,48.828
1574477757.598,-6.348,42.969,39.551,-20.508,71.289
1574477757.602,-16.113,36.621,23.438,-24.414,38.574
1574477757.606,-17.578,36.133,13.184,-11.719,47.852
1574477757.610,-5.371,36.621,18.066,3.906,37.109
1574477757.614,-3.418,38.574,29.297,5.859,80.078
1574477757.618,-17.090,38.086,32.227,-4.395,36.133
1574477757.622,-18.555,33.203,21.973,-0.977,66.406
1574477757.626,-23.438,39.551,15.625,13.672,69.336
1574477757.630,-23.438,43.457,22.949,-0.977,4.883
1574477757.634,-19.043,42.480,31.250,-4.883,26.367
1574477757.637,-20.996,42.480,26.855,7.812,22.949
1574477757.641,-22.461,40.039,16.113,-24.902,42.969
1574477757.645,-16.113,41.992,19.043,-48.340,-3.418
1574477757.649,-4.395,46.875,27.344,-29.785,-58.594
1574477757.653,-12.207,50.781,22.461,-28.320,-11.230
1574477757.657,-20.508,52.734,16.602,-34.180,-23.438
1574477757.661,-14.160,49.316,18.066,-30.273,-14.160
1574477757.665,-17.090,51.270,21.484,-21.973,-17.578
1574477757.669,-16.113,49.316,20.020,-12.695,13.184
1574477757.673,-11.230,38.574,21.973,-3.418,82.520
1574477757.676,-15.137,38.086,12.695,-9.766,77.637
1574477757.680,-14.160,49.805,-5.859,-5.371,38.574
1574477757.684,-20.508,49.316,4.883,2.930,-16.113
1574477757.688,-15.625,42.480,26.855,4.395,-12.207
1574477757.692,1.465,52.734,24.414,24.902,-30.762
1574477757.696,-2.930,60.059,13.184,15.137,-33.203
1574477757.700,-20.020,52.734,18.555,-6.836,-20.508
1574477757.704,-30.273,29.785,27.832,-4.883,-11.719
1574477757.708,-19.043,19.043,16.113,-2.930,10.254
1574477757.712,-3.906,43.945,22.949,1.953,13.672
1574477757.716,-6.348,58.594,41.504,15.625,64.453
1574477757.719,-18.066,50.781,23.926,-3.418,74.707
1574477757.723,-12.695,45.410,14.648,-28.320,-9.277
1574477757.727,4.883,40.527,22.949,-8.301,8.789
1574477757.731,12.695,35.645,18.555,4.395,31.250
1574477757.735,6.836,41.504,16.113,-12.695,27.344
1574477757.739,-6.348,41.992,19.043,-14.648,47.852
1574477757.743,-0.488,37.598,21.484,-11.719,43.945
1574477757.747,20.020,41.992,12.695,-12.695,34.668
1574477757.751,37.598,43.945,10.742,3.418,30.762
1574477757.755,20.020,51.270,16.602,7.324,32.715
1574477757.758,-8.789,54.199,15.625,-20.996,-17.578
1574477757.762,-14.648,47.363,25.879,-29.297,33.203
1574477757.766,-2.441,44.434,31.738,-9.277,75.684
1574477757.770,3.418,43.945,12.695,7.812,45.898
1574477757.774,-8.301,44.922,2.441,-2.441,66.895
1574477757.778,-18.066,35.645,3.418,-5.859,19.043
1574477757.782,-18.066,32.227,5.371,11.230,20.996
1574477757.786,-19.043,40.527,12.695,-1.465,6.348
1574477757.790,-12.695,41.504,26.367,0.000,-8.301
1574477757.794,4.883,42.969,22.461,1.953,41.992
1574477757.798,9.277,51.758,11.719,-20.996,25.391
1574477757.801,2.930,55.176,18.555,-13.672,18.555
1574477757.805,-13.672,44.434,19.043,-10.742,35.156
1574477757.809,-12.207,33.203,1.953,-15.625,28.809
1574477757.813,3.906,30.762,-0.977,-2.930,12.695
1574477757.817,-3.906,32.715,11.230,7.324,27.832
1574477757.821,-19.043,33.691,6.348,-3.418,32.227
1574477757.825,-6.836,44.922,11.230,-3.906,49.316
1574477757.829,4.395,53.711,23.438,5.859,79.590
1574477757.833,2.441,44.434,17.090,2.930,43.945
1574477757.837,2.930,40.527,18.066,-1.465,89.844
1574477757.841,-19.531,44.434,19.043,-11.719,101.562
1574477757.844,-23.926,43.945,20.020,1.953,17.090
1574477757.848,-10.254,33.203,19.043,6.348,58.105
1574477757.852,-12.695,30.762,0.000,-5.371,35.645
1574477757.856,-8.301,38.574,-0.488,10.742,3.906
1574477757.860,-11.230,37.109,21.484,-2.441,27.832
1574477757.864,-5.371,43.457,27.832,-7.812,49.805
1574477757.868,7.324,47.363,31.738,18.555,36.133
1574477757.872,3.906,42.969,29.297,12.695,40.527
1574477757.876,-7.324,31.250,20.508,-4.883,81.055
1574477757.880,-11.719,18.066,12.695,-6.836,59.082
1574477757.883,-13.184,30.762,12.695,0.000,73.242
1574477757.887,-12.207,27.344,5.859,3.906,53.711
1574477757.891,15.625,26.855,8.301,11.719,48.340
1574477757.895,9.277,49.316,23.926,0.977,56.641
1574477757.899,-20.020,41.992,22.461,-11.719,47.852
1574477757.903,-21.484,31.250,29.297,-20.020,27.832
1574477757.907,-8.789,31.738,27.344,-29.785,-12.695
1574477757.911,10.742,25.879,19.531,-2.930,3.906
1574477757.915,9.277,27.344,27.344,7.812,11.230
1574477757.919,-8.301,30.762,28.320,-7.324,-35.645
1574477757.923,-15.137,34.668,26.855,-5.371,-23.926
1574477757.926,-15.137,40.527,17.090,-8.301,27.832
1574477757.930,-7.324,33.203,13.184,-3.906,35.645
1574477757.934,8.301,21.484,12.695,-4.883,55.176
1574477757.938,6.836,23.926,10.254,4.395,70.312
1574477757.942,-4.395,41.016,9.277,4.395,52.246
1574477757.946,1.465,47.852,15.137,-20.020,-1.953
1574477757.950,12.695,46.387,22.949,-9.277,-0.488
1574477757.954,5.371,50.293,20.508,-1.953,8.301
1574477757.958,-6.348,45.898,20.508,-5.371,7.324
1574477757.962,-8.301,38.086,24.414,-7.812,42.480
1574477757.965,3.418,36.621,25.391,-8.301,33.203
1574477757.969,14.160,26.367,17.578,2.930,0.977
1574477757.973,11.230,27.832,5.859,11.230,2.441
1574477757.977,-1.465,55.176,4.395,-7.812,71.777
1574477757.981,-3.906,58.594,8.301,-10.254,47.363
1574477757.985,5.859,55.664,17.578,-4.395,-15.625
1574477757.989,11.230,52.734,26.855,-18.066,9.277
1574477757.993,12.695,49.805,21.973,-23.438,44.922
1574477757.997,9.277,55.664,5.371,-24.414,14.160
1574477758.001,-4.883,56.152,1.953,-27.832,6.348
1574477758.005,-6.348,47.363,11.719,-29.785,39.062
1574477758.008,12.207,42.480,8.789,-13.672,45.898
1574477758.012,26.367,48.340,-8.301,-8.301,104.980
1574477758.016,18.555,44.434,-6.348,-18.555,81.055
1574477758.020,-6.836,41.992,12.207,-22.461,-7.812
1574477758.024,-28.320,43.945,17.090,-28.320,3.906
1574477758.028,-19.043,33.691,14.648,-22.949,8.789
1574477758.032,-4.883,30.273,20.020,-4.395,29.297
1574477758.036,-9.766,28.809,25.879,-2.930,58.105
1574477758.040,-18.066,26.367,23.438,-8.789,30.273
1574477758.044,-13.184,41.016,18.066,-38.574,107.910
1574477758.048,2.441,55.176,15.137,-60.547,77.637
1574477758.051,4.883,50.293,14.160,-29.785,10.254
1574477758.055,-0.488,39.551,5.371,-27.832,29.297
1574477758.059,0.000,42.480,13.672,-33.691,-16.113
1574477758.063,-5.859,29.297,20.996,-35.156,-54.688
1574477758.067,-10.742,18.066,5.859,-32.227,-16.602
1574477758.071,-9.766,30.762,7.812,-25.879,28.320
1574477758.075,-6.836,50.781,17.578,-29.785,20.996
1574477758.079,-3.418,53.711,23.438,-12.207,64.453
1574477758.083,-9.277,44.922,31.738,-6.836,40.039
1574477758.087,-16.113,31.738,23.438,-9.766,-2.441
1574477758.090,-9.766,15.137,21.973,3.418,11.719
1574477758.094,-4.883,11.719,26.855,3.906,30.273
1574477758.098,-15.137,22.949,17.578,-1.465,19.043
1574477758.102,-12.207,37.109,25.879,-15.625,-15.625
1574477758.106,-0.977,38.086,34.668,-29.785,21.973
1574477758.110,9.766,41.504,19.531,-20.508,39.551
1574477758.114,17.578,41.504,8.789,-1.465,22.949
1574477758.118,13.184,26.855,20.508,-3.906,-6.348
1574477758.122,-2.930,22.949,38.086,-26.367,15.625
1574477758.126,-4.883,40.527,40.039,-33.203,107.910
1574477758.130,8.789,45.898,27.344,-23.926,54.199
1574477758.133,17.578,38.574,29.297,-12.207,33.203
1574477758.137,7.324,38.574,41.992,-12.695,43.457
1574477758.141,-7.812,46.387,36.621,-8.301,-30.273
1574477758.145,2.441,40.527,19.531,-1.953,-14.160
1574477758.149,10.742,26.855,16.113,9.277,34.180
1574477758.153,9.766,27.344,26.855,21.484,53.711
1574477758.157,-1.465,42.480,31.738,12.695,60.059
1574477758.161,-11.230,52.734,34.668,-2.930,73.730
1574477758.165,-8.301,42.969,28.320,2.930,67.383
1574477758.169,-8.301,37.598,16.602,6.836,9.766
1574477758.173,-2.930,33.203,20.020,14.648,-44.434
1574477758.176,-2.441,31.738,24.414,11.230,-44.922
1574477758.180,-7.324,41.992,27.832,-17.090,13.672
1574477758.184,-5.371,46.387,25.879,-20.508,17.578
1574477758.188,11.230,45.898,14.648,-23.438,33.203
1574477758.192,17.090,33.691,19.043,-24.902,29.785
1574477758.196,4.395,25.391,33.691,-15.137,-37.598
1574477758.200,4.395,26.855,37.109,-8.789,-11.230
1574477758.204,-2.441,28.320,31.738,-6.348,59.570
1574477758.208,-0.488,37.109,27.344,1.465,41.992
1574477758.212,8.301,52.246,17.578,5.371,10.254
1574477758.215,9.277,56.152,5.859,2.441,-10.742
1574477758.219,17.578,51.758,12.207,0.000,27.344
1574477758.223,12.207,48.340,26.855,2.441,33.203
1574477758.227,5.371,46.387,27.344,20.020,-8.789
1574477758.231,11.230,51.270,19.043,22.461,25.391
1574477758.235,8.789,45.898,20.996,17.578,34.180
1574477758.239,9.766,46.387,32.227,9.766,15.137
1574477758.243,19.531,41.992,41.016,12.207,43.457
1574477758.247,11.230,26.367,28.320,20.508,23.926
1574477758.251,4.395,35.156,14.160,19.043,5.859
1574477758.255,12.695,41.504,18.066,19.043,28.320
1574477758.258,4.395,37.109,26.367,-2.441,-30.762
1574477758.262,-1.953,39.551,30.762,-7.324,-51.758
1574477758.266,3.418,42.480,29.297,4.395,-25.391
1574477758.270,12.695,51.270,37.109,17.090,-5.859
1574477758.274,17.578,54.199,40.527,31.738,35.645
1574477758.278,5.859,39.062,34.180,28.320,48.340
1574477758.282,-2.441,36.133,35.156,3.906,10.742
1574477758.286,-6.836,41.016,30.762,10.742,-1.953
1574477758.290,-5.371,39.062,29.297,19.531,23.926
1574477758.294,-3.906,43.945,30.762,-11.719,1.953
1574477758.297,-8.789,42.969,37.109,-21.484,-1.953
1574477758.301,-7.812,30.273,37.598,-15.625,27.344
1574477758.305,1.465,30.273,22.461,-12.207,27.832
1574477758.309,-2.930,35.645,28.809,1.465,78.613
1574477758.313,-19.043,30.762,24.414,3.418,101.562
1574477758.317,-20.508,29.785,14.648,-10.254,77.637
1574477758.321,-21.484,32.715,20.508,-24.414,13.184
1574477758.325,-22.949,35.156,20.508,-30.762,12.695
1574477758.329,-9.766,38.086,21.484,-8.789,16.602
1574477758.333,1.465,48.340,18.555,2.441,-6.836
1574477758.337,-0.488,42.480,9.766,-8.789,11.719
1574477758.340,-9.766,11.719,15.137,-8.789,23.438
1574477758.344,-12.207,1.465,23.926,8.789,42.969
1574477758.348,1.465,36.133,19.531,9.277,23.438
1574477758.352,-2.441,58.105,12.695,-0.977,-4.883
1574477758.356,-19.531,48.828,18.555,8.301,31.250
1574477758.360,-29.297,41.016,23.438,-3.906,51.270
1574477758.364,-25.879,44.922,15.625,-11.230,10.742
1574477758.368,-20.996,43.457,10.254,7.812,-0.488
1574477758.372,-0.488,34.180,24.414,29.297,31.250
1574477758.376,11.719,29.297,37.109,27.832,55.664
1574477758.380,-5.859,25.879,29.785,14.648,50.293
1574477758.383,-11.719,32.715,26.855,11.719,51.758
1574477758.387,-10.742,42.480,33.691,19.531,24.414
1574477758.391,-6.348,42.480,34.668,35.156,58.105
1574477758.395,4.883,34.668,33.203,20.996,95.215
1574477758.399,-4.883,32.715,28.320,-15.625,40.527
1574477758.403,-22.949,29.297,25.391,-24.902,22.461
1574477758.407,-15.625,26.367,30.273,-17.578,9.277
1574477758.411,-4.395,24.414,40.527,-14.648,25.391
1574477758.415,12.695,19.531,41.016,0.488,30.273
1574477758.419,1.465,14.648,28.809,0.977,-7.812
1574477758.422,-25.391,22.461,42.969,-17.578,28.809
1574477758.426,-7.324,44.434,52.734,-14.160,70.801
1574477758.430,-0.488,44.434,36.621,-5.859,24.414
1574477758.434,-14.160,37.598,36.133,-6.836,31.738
1574477758.438,-12.207,41.016,39.551,3.906,67.871
1574477758.442,-13.184,37.598,33.691,15.625,30.762
1574477758.446,-16.602,20.020,25.391,-0.977,-11.719
1574477758.450,-6.348,16.602,25.879,6.348,-11.719
1574477758.454,1.953,37.598,27.832,24.902,-3.906
1574477758.458,-1.953,40.039,17.578,10.254,-9.766
1574477758.462,-3.906,34.668,26.855,-8.789,45.410
1574477758.465,0.977,39.062,36.133,-7.812,32.227
1574477758.469,8.301,38.574,25.879,-10.254,-19.043
1574477758.473,16.113,33.691,23.438,-5.371,39.551
1574477758.477,1.953,34.668,33.203,-6.836,27.832
1574477758.481,0.488,35.156,40.039,-18.066,-1.465
1574477758.485,17.090,22.949,38.574,0.488,34.180
1574477758.489,11.719,20.020,34.668,9.277,-2.441
1574477758.493,-1.953,27.832,38.086,1.465,16.602
1574477758.497,3.418,35.645,38.086,9.277,53.711
1574477758.501,-4.395,39.062,37.598,18.066,17.090
1574477758.505,-19.043,38.086,30.762,7.324,-34.180
1574477758.508,-13.672,40.039,30.762,4.883,-13.184
1574477758.512,-3.906,33.691,33.691,8.789,40.039
1574477758.516,-0.488,28.320,35.645,18.066,70.801
1574477758.520,-9.766,31.738,34.668,20.020,39.062
1574477758.524,-21.973,33.691,30.762,0.977,20.996
1574477758.528,-21.484,33.691,35.156,7.324,64.453
1574477758.532,-8.789,31.250,32.715,23.438,85.938
1574477758.536,-3.418,31.738,27.344,19.531,8.301
1574477758.540,-4.395,35.156,29.785,0.977,-4.883
1574477758.544,-12.695,37.109,33.691,-19.043,38.086
1574477758.547,-20.508,30.273,37.109,-18.555,50.781
1574477758.551,-2.930,21.484,40.527,-3.906,71.289
1574477758.555,2.441,31.250,44.922,8.789,68.359
1574477758.559,-6.348,32.227,40.039,4.395,34.180
1574477758.563,-12.207,21.973,22.949,4.395,-21.973
1574477758.567,-9.766,37.598,23.926,20.020,17.578
1574477758.571,4.883,39.062,35.645,26.855,23.926
1574477758.575,6.348,29.297,30.273,5.371,18.066
1574477758.579,-4.395,43.457,33.203,-3.906,36.621
1574477758.583,-11.719,41.016,39.551,1.465,-9.766
1574477758.587,-22.949,38.574,34.180,-2.441,36.133
1574477758.590,-19.531,40.527,32.715,-5.371,16.113
1574477758.594,-22.949,36.133,37.109,8.789,-34.668
1574477758.598,-38.086,31.738,35.156,15.137,-20.508
1574477758.602,-41.016,20.996,38.086,2.441,-6.348
1574477758.606,-34.180,20.020,35.645,1.953,40.039
1574477758.610,-31.738,30.273,28.320,-3.418,67.383
1574477758.614,-33.203,33.203,31.738,-2.441,47.852
1574477758.618,-39.062,28.320,31.738,4.883,36.621
1574477758.622,-37.598,22.461,27.832,2.930,50.781
1574477758.626,-29.297,24.414,26.855,-11.719,-14.648
1574477758.629,-20.996,29.297,26.855,-26.855,-34.668
1574477758.633,-16.113,26.367,30.273,-19.531,24.414
1574477758.637,-27.344,34.668,40.039,-21.484,57.129
1574477758.641,-28.320,34.180,41.016,-20.020,81.055
1574477758.645,-26.855,23.926,28.809,-10.742,30.273
1574477758.649,-29.297,29.297,26.855,10.742,18.066
1574477758.653,-8.301,28.809,19.531,16.602,75.195
1574477758.657,-1.953,26.855,12.207,-2.441,33.203
1574477758.661,-10.254,30.762,24.902,7.812,11.719
1574477758.665,-9.277,37.109,28.320,17.090,66.406
1574477758.669,-11.719,37.598,29.785,8.301,65.430
1574477758.672,-8.789,32.715,37.598,11.230,-7.812
1574477758.676,-8.789,30.762,39.062,3.418,-4.395
1574477758.680,-19.043,29.297,37.109,-10.742,28.320
1574477758.684,-23.438,31.250,39.062,-3.906,6.836
1574477758.688,-8.301,23.926,40.039,19.531,-8.301
1574477758.692,0.488,16.602,25.391,23.438,51.758
1574477758.696,-8.301,26.367,21.484,0.000,62.988
1574477758.700,-10.254,39.062,31.738,-15.625,26.367
1574477758.704,-10.742,47.852,36.133,3.418,39.062
1574477758.708,-12.207,43.457,35.645,8.301,35.156
1574477758.712,-3.906,31.250,27.344,1.953,-0.977
1574477758.715,6.836,25.879,24.902,13.184,-10.742
1574477758.719,-4.395,28.809,26.855,-16.113,-13.184
1574477758.723,-14.160,44.922,28.809,-29.785,43.457
1574477758.727,-17.090,46.387,35.645,-11.719,80.566
1574477758.731,-15.625,35.156,51.270,-4.395,70.801
1574477758.735,-12.695,33.691,48.340,-7.324,41.992
1574477758.739,-16.113,34.180,27.344,-9.766,10.254
1574477758.743,-20.996,35.156,28.809,-6.348,62.500
1574477758.747,-25.391,35.156,30.762,-1.465,29.785
1574477758.751,-11.230,23.926,20.996,12.695,10.742
1574477758.754,1.953,9.277,18.066,12.695,44.922
1574477758.758,-15.137,28.320,29.297,10.254,76.660
1574477758.762,-31.738,42.969,36.133,-13.672,41.504
1574477758.766,-18.555,42.480,30.273,-42.969,-11.719
1574477758.770,-9.766,33.203,25.391,-28.320,9.277
1574477758.774,4.883,25.879,25.391,-8.301,10.254
1574477758.778,6.348,30.273,19.531,-15.625,-26.367
1574477758.782,-1.465,40.039,22.461,-14.648,-35.645
1574477758.786,-3.906,45.898,28.320,-6.836,26.855
1574477758.790,-3.906,37.109,20.996,-14.160,17.578
1574477758.794,0.977,32.715,16.602,-16.602,25.879
1574477758.797,-0.977,37.109,21.484,-12.207,30.762
1574477758.801,-5.371,40.039,23.926,-9.766,-12.207
1574477758.805,-5.371,26.367,24.902,-10.254,30.762
1574477758.809,5.371,14.648,24.414,-4.883,71.777
1574477758.813,11.230,19.531,23.438,-4.883,69.824
1574477758.817,1.465,20.020,23.438,-7.812,26.855
1574477758.821,-12.207,34.180,24.902,-15.625,-23.926
1574477758.825,-11.230,44.922,27.344,-10.254,6.836
1574477758.829,-1.953,39.062,24.902,6.836,53.223
1574477758.833,0.488,43.457,23.438,7.812,57.129
1574477758.836,-12.207,39.551,22.461,-11.230,37.598
1574477758.840,-17.578,32.227,14.160,-21.973,16.113
1574477758.844,-2.441,29.785,20.020,-3.418,50.781
1574477758.848,7.324,9.766,24.902,-3.906,-0.977
1574477758.852,-0.488,7.812,14.160,-24.902,8.301
1574477758.856,1.465,19.531,20.508,-20.508,3.418
1574477758.860,0.488,29.297,40.039,-18.066,19.531
1574477758.864,-11.719,45.410,43.945,-18.066,51.758
1574477758.868,-10.254,48.828,31.250,-11.230,49.316
1574477758.872,0.977,44.434,22.461,-3.906,42.969
1574477758.876,3.906,46.387,25.391,-2.930,47.852
1574477758.879,-6.836,43.457,23.438,-11.230,44.922
1574477758.883,-19.043,30.762,18.066,-12.207,1.465
1574477758.887,-18.555,18.066,26.855,-4.883,34.180
1574477758.891,-5.859,17.578,30.762,12.695,17.090
1574477758.895,-9.277,19.531,28.320,16.602,-41.016
1574477758.899,-27.832,17.090,30.762,5.371,-7.812
1574477758.903,-35.156,20.508,32.715,0.977,6.348
1574477758.907,-28.320,28.320,21.973,-1.953,-11.719
1574477758.911,-12.207,39.062,17.578,8.301,73.730
1574477758.915,-11.230,41.504,25.879,9.277,33.691
1574477758.919,-25.879,34.180,31.738,-1.953,-57.129
1574477758.922,-26.367,23.926,41.992,-12.695,12.207
1574477758.926,-25.879,25.391,39.062,-12.695,35.645
1574477758.930,-14.648,31.738,34.180,9.766,42.480
1574477758.934,14.648,26.367,39.551,12.207,15.625
1574477758.938,10.742,21.484,43.945,-8.789,-33.203
1574477758.942,-4.883,30.273,41.504,-14.160,-43.457
1574477758.946,-4.395,35.645,31.738,-15.625,-27.832
1574477758.950,-9.277,32.227,24.414,-10.742,46.875
1574477758.954,-13.184,23.926,20.020,-6.348,81.055
1574477758.958,-12.695,27.832,24.902,-10.254,56.152
1574477758.961,-15.137,39.062,33.691,7.812,58.105
1574477758.965,-12.695,41.016,28.320,11.230,55.176
1574477758.969,-3.418,26.855,20.020,-7.324,26.367
1574477758.973,3.906,4.395,34.180,-4.883,60.059
1574477758.977,-11.719,16.113,43.457,-14.648,45.898
1574477758.981,-30.762,37.598,31.250,-2.441,33.203
1574477758.985,-28.320,43.457,32.227,5.371,44.434
1574477758.989,-14.160,40.039,38.086,-6.836,15.625
1574477758.993,0.000,32.227,34.668,-2.930,-28.320
1574477758.997,4.883,29.785,28.320,-4.395,20.996
1574477759.001,-3.418,25.879,28.320,0.488,21.484
1574477759.004,-18.555,23.438,26.855,-9.766,-31.738
1574477759.008,-20.020,19.043,20.996,-27.832,4.395
1574477759.012,-17.578,25.879,29.785,-15.625,62.500
1574477759.016,-16.602,41.016,34.668,-12.207,51.270
1574477759.020,-22.461,42.480,29.297,-24.414,20.020
1574477759.024,-17.578,34.180,23.926,-26.855,11.719
1574477759.028,-5.371,32.227,21.484,-26.367,27.344
1574477759.032,0.977,35.645,20.020,-6.836,11.719
1574477759.036,-6.836,34.668,21.484,4.395,2.930
1574477759.040,-26.855,33.203,24.414,-12.207,11.230
1574477759.044,-18.555,26.855,25.879,-20.508,50.781
1574477759.047,-12.207,18.066,24.414,-34.180,41.504
1574477759.051,-21.973,20.508,19.531,-43.457,-2.930
1574477759.055,-14.648,22.461,20.996,-30.273,17.090
1574477759.059,-10.254,31.738,28.320,-15.625,24.902
1574477759.063,-18.555,44.922,32.227,-31.738,-6.348
1574477759.067,-19.043,42.480,37.598,-40.039,20.508
1574477759.071,-8.789,30.762,35.156,-27.344,37.109
1574477759.075,0.977,21.973,24.414,-9.766,18.555
1574477759.079,-17.090,25.391,35.645,-3.906,13.184
1574477759.083,-34.668,25.879,39.062,-20.508,32.715
1574477759.086,-29.297,18.555,31.250,-32.227,23.438
1574477759.090,-8.789,25.391,33.203,-30.273,-87.402
1574477759.094,-0.488,27.832,31.738,-27.832,-44.922
1574477759.098,-22.949,22.949,23.926,-39.062,49.805
1574477759.102,-30.273,30.762,23.926,-41.504,23.438
1574477759.106,-23.926,31.250,24.414,-35.156,-0.977
1574477759.110,-22.949,19.043,30.762,-18.066,6.348
1574477759.114,-23.926,20.508,25.879,-17.090,4.883
1574477759.118,-29.297,31.250,16.113,-28.809,44.922
1574477759.122,-31.738,33.691,29.297,-27.832,75.195
1574477759.126,-25.879,29.297,36.133,-38.086,60.547
1574477759.129,-20.508,18.066,41.016,-26.855,50.781
1574477759.133,-19.043,23.438,45.898,0.977,15.137
1574477759.137,-13.672,35.156,33.691,-5.371,-13.672
1574477759.141,-25.879,32.227,22.949,-29.297,-15.625
1574477759.145,-33.691,25.879,27.832,-27.344,37.109
1574477759.149,-20.996,37.109,33.691,-8.789,47.852
1574477759.153,-8.789,43.945,28.320,3.906,14.648
1574477759.157,-13.672,30.762,22.949,1.953,18.066
1574477759.161,-23.438,26.367,24.902,3.906,-11.719
1574477759.165,-15.137,32.715,29.785,-11.719,13.184
1574477759.168,-7.324,29.785,33.203,-18.555,22.949
1574477759.172,3.418,18.555,35.156,8.301,8.789
1574477759.176,7.812,14.648,37.109,0.488,71.777
1574477759.180,-7.812,20.020,32.227,-23.438,19.531
1574477759.184,-15.137,31.250,24.414,-22.949,-18.066
1574477759.188,-20.508,38.574,25.391,-29.297,18.066
1574477759.192,-10.742,43.945,33.203,-25.391,48.340
1574477759.196,9.277,42.969,35.645,-19.531,40.039
1574477759.200,6.348,33.691,18.555,-26.855,10.254
1574477759.204,-15.625,23.926,10.742,-38.574,-21.484
1574477759.208,-20.020,17.578,19.531,-29.297,-9.766
1574477759.211,-3.418,7.324,21.484,-4.883,0.000
1574477759.215,-6.836,12.695,28.320,-7.812,-16.602
1574477759.219,-14.648,34.668,26.855,-27.344,29.785
1574477759.223,-10.742,31.250,15.625,-32.715,38.086
1574477759.227,-11.719,26.367,20.020,-20.020,23.926
1574477759.231,-7.324,29.297,25.879,1.953,55.664
1574477759.235,-13.184,25.879,24.902,5.371,106.445
1574477759.239,-27.344,29.785,28.809,-7.812,82.031
1574477759.243,-20.508,31.738,20.508,-25.391,22.949
1574477759.247,-8.789,29.297,12.695,-29.297,-4.395
1574477759.251,-8.789,32.227,22.461,-19.043,-28.320
1574477759.254,-25.391,30.762,29.785,-20.996,-14.160
1574477759.258,-34.180,27.344,33.203,-28.809,58.105
1574477759.262,-28.320,23.438,26.855,-24.414,29.297
1574477759.266,-22.949,22.949,17.090,-22.461,30.762
1574477759.270,-17.090,26.367,22.461,-19.531,78.125
1574477759.274,-4.883,18.555,26.367,-15.625,30.762
1574477759.278,-9.277,8.789,24.414,-13.184,40.527
1574477759.282,-18.066,16.602,16.602,-14.648,22.461
1574477759.286,-9.277,31.738,10.742,-20.020,1.953
1574477759.290,-3.418,37.598,19.043,-4.883,6.836
1574477759.293,4.883,42.480,27.832,20.020,32.227
1574477759.297,-2.441,38.574,32.227,19.531,60.059
1574477759.301,-13.184,21.484,34.180,1.465,34.180
1574477759.305,-2.930,19.043,36.133,0.488,19.043
1574477759.309,-0.977,28.809,31.250,-5.859,2.930
1574477759.313,0.488,40.527,27.832,-20.508,-16.113
1574477759.317,5.371,39.062,30.762,-18.555,41.016
1574477759.321,-6.348,30.762,24.414,-14.648,-6.836
1574477759.325,-24.414,27.344,22.461,-14.160,-16.602
1574477759.329,-23.926,24.414,28.320,-11.719,54.688
1574477759.333,-6.836,23.438,21.973,-10.742,-28.320
1574477759.336,-11.719,20.996,19.531,-11.719,-52.734
1574477759.340,-21.973,15.625,20.996,-13.672,21.484
1574477759.344,-18.066,29.785,28.809,-6.348,45.898
1574477759.348,-9.766,39.062,34.180,11.719,24.414
1574477759.352,-1.953,35.156,30.273,12.695,62.500
1574477759.356,0.000,30.273,39.062,6.836,95.703
1574477759.360,-3.906,32.715,47.363,2.441,92.285
1574477759.364,-6.836,40.527,39.551,-17.090,108.887
1574477759.368,-9.766,41.504,29.297,-13.184,26.855
1574477759.372,-6.348,28.320,30.762,-0.977,30.273
1574477759.375,-4.883,21.484,25.391,-20.508,62.500
1574477759.379,-11.719,29.785,21.973,-29.785,60.547
1574477759.383,-19.043,38.086,29.785,-22.949,40.039
1574477759.387,-13.184,43.457,23.438,-11.719,20.996
1574477759.391,4.395,36.621,15.137,13.672,2.441
1574477759.395,3.418,28.809,30.273,12.207,-17.090
1574477759.399,-14.160,30.762,36.621,-7.812,68.848
1574477759.403,-24.414,34.668,37.598,-9.766,96.191
1574477759.407,-35.156,31.738,41.016,-12.695,26.367
1574477759.411,-29.297,24.902,38.086,-3.906,64.941
1574477759.415,-15.137,26.367,38.574,2.441,17.578
1574477759.418,-25.391,22.461,41.016,-8.301,-20.508
1574477759.422,-23.438,19.531,40.039,-12.695,18.066
1574477759.426,-15.137,27.832,30.273,-13.184,41.016
1574477759.430,-1.465,33.203,12.695,0.000,55.176
1574477759.434,12.207,35.645,9.277,1.953,5.859
1574477759.438,-13.672,34.180,12.695,-15.137,55.176
1574477759.442,-26.855,33.203,11.719,-23.438,82.520
1574477759.446,-16.602,25.391,30.273,-19.531,65.918
1574477759.450,-9.277,8.301,49.316,-7.812,69.824
1574477759.454,-4.883,15.137,45.410,-1.953,66.895
1574477759.458,-7.324,30.762,33.691,-7.812,50.781
1574477759.461,-15.625,40.527,34.180,-6.348,30.273
1574477759.465,-18.555,37.109,35.156,-8.301,29.297
1574477759.469,-10.254,34.668,34.668,-1.465,58.594
1574477759.473,0.000,44.922,27.344,18.066,41.016
1574477759.477,-9.277,30.762,12.207,-0.488,5.859
1574477759.481,-18.555,21.484,10.254,-23.926,43.457
1574477759.485,-13.184,27.344,14.648,-21.973,50.781
1574477759.489,-20.020,19.043,28.809,-16.113,54.688
1574477759.493,-20.508,16.113,33.203,-6.836,36.621
1574477759.497,-12.207,26.367,28.809,-9.766,11.230
1574477759.500,-17.090,31.738,29.785,-14.160,18.066
1574477759.504,-20.508,24.414,32.715,-13.672,-2.441
1574477759.508,-23.926,13.184,28.320,-18.066,14.648
1574477759.512,-17.578,11.230,25.391,-1.953,32.715
1574477759.516,-7.812,24.902,28.809,1.465,-6.836
1574477759.520,-20.996,21.973,21.484,-17.090,41.992
1574477759.524,-33.691,16.602,23.926,-12.207,31.250
1574477759.528,-19.531,25.391,31.250,3.906,-22.461
1574477759.532,-5.859,24.902,34.180,-1.465,-0.977
1574477759.536,-25.879,24.414,32.715,-23.926,23.438
1574477759.540,-33.203,25.879,25.879,-24.414,38.574
1574477759.543,-27.344,26.855,27.344,-8.301,32.715
1574477759.547,-29.297,23.926,25.879,-3.418,56.152
1574477759.551,-27.344,26.855,29.785,-2.441,30.762
1574477759.555,-22.949,30.762,32.227,-3.906,-11.230
1574477759.559,-21.484,21.973,27.832,-9.277,-22.461
1574477759.563,-21.484,9.766,21.973,4.883,-6.836
1574477759.567,-23.926,13.672,22.949,14.160,-1.465
1574477759.571,-20.508,20.508,29.297,16.602,53.223
1574477759.575,-20.020,23.438,19.531,6.348,34.668
1574477759.579,-29.785,30.762,21.484,-10.254,-60.059
1574477759.583,-22.461,28.809,39.551,-2.441,-2.441
1574477759.586,-19.531,25.391,33.691,1.465,-1.465
1574477759.590,-20.508,25.391,20.508,4.883,-25.879
1574477759.594,-15.137,26.855,15.625,7.812,44.922
1574477759.598,-8.789,21.484,26.367,7.324,45.410
1574477759.602,-11.230,11.230,43.945,8.301,-20.020
1574477759.606,-20.508,13.184,41.504,13.184,-39.062
1574477759.610,-20.508,25.391,35.645,18.066,-50.781
1574477759.614,-23.926,33.691,22.949,5.371,-51.270
1574477759.618,-33.203,29.785,25.879,-4.395,18.066
1574477759.622,-37.598,35.156,33.691,7.324,43.457
1574477759.625,-29.785,39.551,13.672,2.930,63.477
1574477759.629,-18.555,33.691,18.066,-8.789,107.422
1574477759.633,-19.043,34.668,46.875,0.977,79.102
1574477759.637,-27.832,24.414,46.387,2.441,0.000
1574477759.641,-25.879,16.602,35.645,-9.277,7.324
1574477759.645,-27.832,24.414,36.133,-2.441,60.059
1574477759.649,-26.367,31.250,39.062,6.348,56.152
1574477759.653,-18.555,28.320,41.992,9.766,46.387
1574477759.657,-27.832,18.066,37.109,10.254,20.020
1574477759.661,-33.203,25.879,25.879,10.254,64.941
1574477759.665,-18.066,32.715,27.344,8.301,97.656
1574477759.668,-13.672,28.809,48.340,0.488,62.988
1574477759.672,-21.973,30.762,50.293,7.812,-0.977
1574477759.676,-28.320,28.320,40.039,6.836,-26.855
1574477759.680,-22.949,21.484,40.039,-8.301,6.836
1574477759.684,-17.578,22.461,35.645,-7.324,41.016
1574477759.688,-23.926,31.250,25.391,-24.414,39.062
1574477759.692,-17.578,32.227,22.949,-29.785,3.418
1574477759.696,-6.348,29.297,21.484,-15.625,-56.641
1574477759.700,-12.207,26.367,29.785,-16.113,-74.219
1574477759.704,-20.020,22.461,38.086,-14.648,-7.324
1574477759.707,-21.973,22.461,34.180,-10.254,58.105
1574477759.711,-19.043,19.043,29.297,-9.277,85.449
1574477759.715,-11.230,17.578,29.297,-18.555,92.773
1574477759.719,-10.742,25.391,35.645,-19.531,40.039
1574477759.723,-14.648,37.109,23.438,-9.766,10.742
1574477759.727,-28.320,47.852,22.949,-18.066,7.324
1574477759.731,-29.297,40.039,36.133,-35.156,-12.695
1574477759.735,-22.949,28.809,26.855,-30.762,30.762
1574477759.739,-32.715,27.832,20.020,-23.926,33.203
1574477759.743,-25.879,21.973,30.273,-9.277,21.973
1574477759.747,-18.555,12.207,44.434,-0.488,46.387
1574477759.750,-16.602,18.555,41.992,-7.324,14.648
1574477759.754,-18.066,30.273,35.645,-18.066,4.883
1574477759.758,-28.320,36.133,37.598,-24.902,32.227
1574477759.762,-40.039,28.809,28.320,-29.785,38.086
1574477759.766,-36.621,27.832,27.344,-27.344,-32.227
1574477759.770,-17.090,35.645,31.738,-16.602,-4.395
1574477759.774,4.883,28.809,25.879,-22.949,66.895
1574477759.778,5.371,28.320,31.250,-20.996,48.828
1574477759.782,-12.695,21.973,39.551,-15.137,55.176
1574477759.786,-23.438,12.695,34.668,-29.297,15.137
1574477759.790,-18.066,28.320,27.344,-30.273,6.836
1574477759.793,-16.113,34.180,31.738,-25.391,12.207
1574477759.797,-26.855,23.926,30.273,-32.227,-18.555
1574477759.801,-35.156,16.113,24.414,-34.668,-18.066
1574477759.805,-32.715,25.391,32.715,-22.949,6.348
1574477759.809,-17.090,30.273,45.898,-8.301,19.531
1574477759.813,-12.207,18.555,50.293,-3.418,84.473
1574477759.817,-23.926,9.277,42.480,-17.090,76.660
1574477759.821,-28.809,15.137,41.016,-18.066,22.461
1574477759.825,-28.809,24.414,39.062,-7.324,21.973
1574477759.829,-24.414,30.273,36.133,19.043,-10.254
1574477759.832,-17.090,25.391,20.508,27.344,-25.879
1574477759.836,-24.414,14.648,18.555,4.883,-25.879
1574477759.840,-42.969,12.695,34.180,-20.020,-11.230
1574477759.844,-36.621,5.371,38.574,-36.621,13.672
1574477759.848,-29.785,4.883,40.527,-32.715,50.293
1574477759.852,-28.320,16.602,44.434,-23.926,90.820
1574477759.856,-15.137,28.809,43.457,-14.648,11.719
1574477759.860,-15.625,32.227,30.273,-19.531,-43.457
1574477759.864,-18.555,31.250,25.879,-14.160,-33.203
1574477759.868,-18.066,29.785,33.691,-11.719,-29.785
1574477759.872,-17.090,25.391,36.621,-15.137,9.277
1574477759.875,-9.766,32.227,40.039,-4.883,80.566
1574477759.879,-15.137,33.691,42.969,-2.930,92.285
1574477759.883,-20.996,20.020,25.879,-9.766,67.383
1574477759.887,-18.066,15.137,23.926,-9.766,121.094
1574477759.891,-11.719,18.555,39.062,-17.090,69.824
1574477759.895,-5.859,21.484,38.086,-5.859,50.781
1574477759.899,-14.648,18.555,27.832,3.906,129.395
1574477759.903,-19.043,20.508,28.809,-1.953,84.473
1574477759.907,-17.578,27.344,38.086,-4.395,20.996
1574477759.911,-5.371,36.133,44.922,6.836,9.766
1574477759.915,-2.930,35.645,38.086,-2.441,20.020
1574477759.918,-30.762,24.414,29.297,-22.949,40.527
1574477759.922,-35.156,26.855,36.621,-13.672,-2.441
1574477759.926,-29.785,29.785,41.992,-6.836,25.391
1574477759.930,-30.273,22.949,31.250,-8.301,63.965
1574477759.934,-20.020,20.508,24.414,11.230,29.297
1574477759.938,-16.113,19.531,24.902,8.301,20.020
1574477759.942,-32.227,19.043,32.227,-3.906,9.766
1574477759.946,-41.016,27.832,41.992,2.441,25.879
1574477759.950,-29.297,25.879,33.691,-4.883,61.035
1574477759.954,-12.207,22.949,31.738,-6.348,38.086
1574477759.957,-9.766,28.320,37.109,-6.836,-20.020
1574477759.961,-17.090,32.227,24.414,-15.137,37.598
1574477759.965,-20.996,37.109,23.438,-7.324,77.637
1574477759.969,-20.508,36.133,33.691,4.395,24.414
1574477759.973,-8.301,25.391,30.273,7.324,-22.949
1574477759.977,0.488,22.949,31.250,2.441,-50.293
1574477759.981,-4.883,27.344,32.715,11.230,17.578
1574477759.985,-18.066,31.250,23.926,33.691,35.156
1574477759.989,-32.715,32.227,23.926,25.391,-29.297
1574477759.993,-20.996,42.969,28.320,13.184,-59.082
1574477759.997,-4.883,45.410,32.227,4.395,-3.906
1574477760.000,-10.742,36.621,41.504,6.348,52.246
1574477760.004,-10.742,31.738,38.086,-8.301,58.594
1574477760.008,-9.766,21.484,20.996,-37.109,49.316
1574477760.012,-4.395,22.461,14.648,-24.414,37.598
1574477760.016,-12.695,28.320,25.391,-8.301,28.320
1574477760.020,-29.785,31.738,26.855,-2.930,19.531
1574477760.024,-29.297,26.855,20.996,-2.930,34.180
1574477760.028,-20.996,26.855,20.020,-12.695,24.414
1574477760.032,-15.625,20.996,23.438,-4.395,47.363
1574477760.036,-3.906,8.301,31.250,19.043,67.871
1574477760.039,-12.695,32.227,39.551,27.344,3.906
1574477760.043,-38.574,34.668,40.039,16.113,-5.371
1574477760.047,-31.738,19.043,39.551,4.883,81.055
1574477760.051,-16.113,27.832,39.551,10.254,53.223
1574477760.055,-13.184,30.762,33.691,6.348,-21.973
1574477760.059,-20.996,32.715,37.598,0.488,28.809
1574477760.063,-26.367,30.762,32.227,-8.301,8.789
1574477760.067,-16.113,29.297,9.277,-10.254,-14.648
1574477760.071,-4.883,25.879,6.836,8.301,8.301
1574477760.075,-1.953,21.973,20.020,6.348,-20.996
1574477760.079,-3.906,40.527,26.367,3.906,-4.883
1574477760.082,-22.949,30.273,30.762,5.371,-13.184
1574477760.086,-9.277,18.555,40.039,10.742,50.781
1574477760.090,13.672,31.250,30.273,4.883,78.613
1574477760.094,-3.906,36.133,18.555,-6.836,15.137
1574477760.098,-8.789,39.062,24.414,-4.883,5.371
1574477760.102,-14.648,32.715,31.738,-5.859,-43.457
1574477760.106,-13.184,38.574,37.598,-11.230,-64.453
1574477760.110,4.883,47.363,27.344,4.883,-12.207
1574477760.114,8.789,41.016,22.949,21.973,-18.555
1574477760.118,-0.977,30.762,30.273,1.465,-43.457
1574477760.122,-18.066,27.344,33.203,-0.977,23.438
1574477760.125,-23.438,31.250,36.621,14.648,25.879
1574477760.129,-15.625,27.344,31.250,5.371,-58.594
1574477760.133,-2.930,17.578,24.414,9.277,-87.891
1574477760.137,-2.441,26.367,35.156,27.344,-5.371
1574477760.141,-17.090,40.527,34.180,24.414,54.199
1574477760.145,-20.996,48.340,22.461,18.066,-1.953
1574477760.149,-10.742,48.828,27.344,32.715,15.625
1574477760.153,-0.488,32.715,30.762,27.344,-18.066
1574477760.157,-3.418,18.066,37.109,28.320,-19.531
1574477760.161,-12.695,18.555,36.133,27.832,52.734
1574477760.164,-21.973,27.344,31.738,-11.230,6.348
1574477760.168,-13.672,39.062,38.086,-8.789,-60.547
1574477760.172,2.441,42.480,32.227,8.301,-22.949
1574477760.176,-1.465,41.016,22.949,0.488,13.184
1574477760.180,-1.465,43.945,18.066,1.953,8.301
1574477760.184,3.418,43.457,18.066,14.648,50.293
1574477760.188,-10.254,32.715,19.531,8.789,72.266
1574477760.192,-2.441,21.484,21.484,11.719,27.832
1574477760.196,6.836,31.250,29.785,30.273,5.859
1574477760.200,-11.719,31.250,26.367,24.414,-23.438
1574477760.204,-17.090,33.691,26.367,24.902,-2.930
1574477760.207,-9.277,37.598,26.367,21.973,19.531
1574477760.211,-1.953,26.367,10.254,20.020,15.625
1574477760.215,10.742,32.227,16.113,48.340,53.711
1574477760.219,5.859,40.527,37.109,40.039,15.137
1574477760.223,-18.066,33.691,35.645,13.184,-14.160
1574477760.227,-21.484,22.461,21.484,15.137,41.016
1574477760.231,-5.371,33.691,10.742,23.438,51.270
1574477760.235,-1.465,40.039,21.484,23.438,41.504
1574477760.239,-0.977,27.344,28.809,12.695,46.387
1574477760.243,-5.859,29.297,25.879,10.254,5.371
1574477760.246,-17.578,41.016,29.297,34.180,10.742
1574477760.250,-15.137,43.945,25.391,25.391,59.570
1574477760.254,-7.812,38.574,24.414,-3.418,65.430
1574477760.258,-9.277,38.086,29.785,8.301,57.129
1574477760.262,-10.254,44.434,29.785,28.320,57.617
1574477760.266,-2.930,39.551,31.738,34.180,-5.371
1574477760.270,5.859,34.668,31.250,21.973,18.555
1574477760.274,-0.488,43.457,26.855,15.137,47.852
1574477760.278,-2.441,46.875,6.348,18.066,-10.742
1574477760.282,-5.859,41.992,-1.953,5.859,19.531
1574477760.286,-3.906,43.945,25.879,2.441,22.949
1574477760.289,3.418,42.969,36.621,11.719,-46.387
1574477760.293,4.395,39.062,27.832,7.324,-35.156
1574477760.297,8.301,57.617,25.879,0.000,-0.488
1574477760.301,9.277,55.664,25.879,-3.418,-4.395
1574477760.305,-10.254,37.109,25.879,-5.859,22.949
1574477760.309,-21.484,34.668,30.762,-11.719,28.320
1574477760.313,-1.953,39.062,32.715,-7.812,36.133
1574477760.317,-2.930,34.668,24.414,-5.859,75.684
1574477760.321,-26.367,25.879,22.461,-6.348,50.293
1574477760.325,-30.273,28.809,29.297,-0.488,18.066
1574477760.329,-9.277,33.691,28.809,4.395,5.371
1574477760.332,8.301,42.969,33.203,4.883,38.086
1574477760.336,-7.812,38.086,32.227,12.695,68.848
1574477760.340,-18.066,22.461,33.203,7.812,59.570
1574477760.344,-1.953,30.273,33.691,5.371,61.035
1574477760.348,0.488,37.109,17.090,14.648,86.426
1574477760.352,-2.930,33.203,15.137,-3.418,27.832
1574477760.356,9.766,34.668,19.043,1.465,-33.691
1574477760.360,-2.441,32.227,19.531,10.254,39.062
1574477760.364,-23.926,35.156,26.367,-14.648,34.180
1574477760.368,-6.348,37.598,32.227,-24.414,2.441
1574477760.371,17.578,44.434,36.133,-14.160,-26.855
1574477760.375,12.695,44.922,29.297,-1.465,2.930
1574477760.379,11.230,37.109,18.555,8.789,-1.465
1574477760.383,0.488,29.297,18.066,-9.766,-43.457
1574477760.387,-20.020,25.879,23.438,-32.715,2.441
1574477760.391,-9.766,26.367,24.414,-22.949,-4.395
1574477760.395,9.277,34.668,29.297,-15.625,-6.836
1574477760.399,0.488,38.086,29.297,-19.531,67.383
1574477760.403,-8.789,35.156,25.391,-22.949,72.266
1574477760.407,-1.465,34.180,25.391,-16.113,53.223
1574477760.411,-1.953,34.668,19.043,-0.488,0.000
1574477760.414,9.277,39.062,26.855,16.113,-16.602
1574477760.418,10.742,38.086,24.902,-5.859,73.242
1574477760.422,-10.254,28.809,16.602,-32.715,74.219
1574477760.426,-16.602,30.762,22.949,-19.531,21.973
1574477760.430,-6.836,36.133,30.273,-3.418,1.465
1574477760.434,1.953,42.969,27.344,-10.254,-18.066
1574477760.438,-10.742,37.598,20.996,-19.043,-56.152
1574477760.442,-28.320,17.090,28.809,-18.555,5.859
1574477760.446,-22.949,13.184,34.668,-10.254,47.363
1574477760.450,-6.348,39.551,28.809,8.789,-19.531
1574477760.454,-5.859,45.898,15.137,6.836,18.066
1574477760.457,-7.324,40.039,19.043,1.465,55.664
1574477760.461,-14.160,41.504,32.227,-1.465,29.297
1574477760.465,-22.949,35.156,27.832,-20.508,17.578
1574477760.469,-6.348,37.109,22.461,-21.484,55.176
1574477760.473,13.184,37.109,24.902,-6.836,68.848
1574477760.477,7.324,17.090,18.066,-0.977,105.469
1574477760.481,-13.672,20.020,28.809,2.441,63.965
1574477760.485,-19.531,41.992,40.039,-11.230,-6.348
1574477760.489,-17.578,38.086,30.762,-12.695,-14.648
1574477760.493,-9.766,37.598,28.809,2.441,7.812
1574477760.496,-0.977,32.227,32.715,16.113,38.574
1574477760.500,-9.277,24.414,22.949,10.254,34.668
1574477760.504,-20.508,29.785,21.484,-3.906,23.926
1574477760.508,-17.090,29.297,30.762,5.859,31.250
1574477760.512,14.648,35.645,33.203,26.367,27.832
1574477760.516,21.484,39.551,25.391,28.320,48.828
1574477760.520,-4.883,43.457,20.996,25.879,40.039
1574477760.524,-10.254,48.340,30.762,20.020,22.461
1574477760.528,-8.789,31.738,39.062,15.137,-0.488
1574477760.532,-12.695,25.391,36.621,28.809,40.039
1574477760.536,-14.648,36.621,27.344,27.344,88.379
1574477760.539,-14.160,33.691,26.855,-0.977,23.438
1574477760.543,-11.230,30.762,39.551,-20.020,26.367
1574477760.547,-9.277,27.832,28.320,-22.461,49.805
1574477760.551,1.465,27.832,15.137,0.488,42.480
1574477760.555,0.488,31.738,21.484,15.137,75.195
1574477760.559,-3.906,37.109,29.785,16.113,80.078
1574477760.563,-0.488,41.992,31.250,6.836,42.969
1574477760.567,-4.395,37.109,27.832,-1.465,52.734
1574477760.571,5.371,33.203,34.180,30.762,35.645
1574477760.575,18.555,36.621,29.297,41.992,-8.789
1574477760.578,17.090,29.297,26.855,22.949,-1.953
1574477760.582,-5.859,12.207,27.344,20.508,68.359
1574477760.586,-21.973,14.648,19.043,20.508,34.668
1574477760.590,-10.254,28.320,20.020,20.996,24.902
1574477760.594,4.395,38.574,24.414,32.227,29.785
1574477760.598,-10.254,36.621,26.855,26.367,-14.648
1574477760.602,-32.227,32.715,27.832,16.602,46.875
1574477760.606,-28.809,26.855,32.227,25.391,28.809
1574477760.610,-4.883,27.344,28.809,39.062,7.324
1574477760.614,11.230,35.156,28.809,48.828,69.824
1574477760.618,5.371,31.738,37.598,39.062,36.133
1574477760.621,-4.395,32.227,37.598,21.484,54.199
1574477760.625,-5.859,28.809,27.832,18.555,69.336
1574477760.629,0.000,13.184,10.742,7.812,-6.348
1574477760.633,11.719,27.832,15.625,4.883,-38.086
1574477760.637,-2.441,44.434,21.973,3.906,-24.902
1574477760.641,-11.230,44.434,19.043,4.395,51.758
1574477760.645,-1.953,41.504,21.973,12.695,63.477
1574477760.649,-1.465,31.738,24.414,15.625,70.801
1574477760.653,-8.301,28.809,29.785,31.738,65.918
1574477760.657,-13.672,26.855,33.691,32.227,-16.602
1574477760.661,-14.648,16.113,26.855,12.207,14.648
1574477760.664,-15.625,22.461,20.508,3.906,58.594
1574477760.668,-5.859,35.156,28.809,-2.930,6.348
1574477760.672,10.742,38.086,23.438,13.672,0.488
1574477760.676,23.926,53.223,14.648,29.297,20.508
1574477760.680,-7.812,45.898,24.414,22.461,25.879
1574477760.684,-35.645,36.133,30.762,16.602,29.785
1574477760.688,-22.949,36.621,37.109,11.719,10.254
1574477760.692,-19.531,21.973,36.133,11.230,15.137
1574477760.696,-26.367,21.484,23.926,3.906,6.836
1574477760.700,-18.066,39.062,26.855,0.977,7.324
1574477760.703,-6.836,41.504,28.320,11.230,-2.441
1574477760.707,-9.277,27.832,21.484,12.207,26.855
1574477760.711,-17.578,26.367,13.184,-13.184,86.914
1574477760.715,-13.184,31.250,8.301,-19.043,49.805
1574477760.719,-4.395,36.133,15.625,-15.137,-4.883
1574477760.723,-8.789,32.715,32.715,-11.230,13.672
1574477760.727,-16.602,31.250,40.039,-4.883,14.160
1574477760.731,-15.625,41.992,26.855,-12.207,12.207
1574477760.735,-14.648,29.785,15.625,-8.301,50.781
1574477760.739,-15.625,24.902,23.926,5.371,22.949
1574477760.743,-9.766,36.133,35.156,6.836,-26.855
1574477760.746,-14.160,28.320,26.367,-2.441,11.719
1574477760.750,-14.648,18.066,15.625,4.395,37.109
1574477760.754,2.441,19.043,14.160,13.184,32.715
1574477760.758,-12.695,20.020,29.785,-0.977,-9.766
1574477760.762,-32.715,16.113,42.969,-8.789,-37.598
1574477760.766,-23.438,10.254,39.551,3.418,20.508
1574477760.770,-12.207,13.672,32.227,13.672,30.762
1574477760.774,-7.812,20.996,25.391,4.883,30.762
1574477760.778,-19.531,29.785,27.832,-6.348,16.113
1574477760.782,-16.113,44.434,37.598,1.953,15.137
1574477760.785,-10.742,39.062,36.621,-2.441,57.129
1574477760.789,-9.277,23.438,24.902,-3.418,6.836
1574477760.793,-1.465,20.508,22.461,-12.207,-4.883
1574477760.797,-1.953,32.227,22.949,-15.625,27.344
1574477760.801,-4.395,41.504,28.320,0.977,24.902
1574477760.805,-13.672,32.227,36.133,-1.465,32.227
1574477760.809,-7.812,27.832,31.250,-20.020,55.664
1574477760.813,1.465,31.738,23.438,-17.090,62.988
1574477760.817,-11.719,32.715,21.973,-10.742,30.762
1574477760.821,-7.812,25.879,24.414,-24.902,33.203
1574477760.825,7.812,20.020,37.109,-30.762,37.598
1574477760.828,-3.418,24.902,32.715,-23.926,5.859
1574477760.832,-16.602,19.531,17.578,-3.418,26.855
1574477760.836,-4.883,24.902,25.879,13.672,17.090
1574477760.840,-15.625,37.109,29.785,-8.789,41.504
1574477760.844,-29.785,36.133,22.461,-29.297,63.965
1574477760.848,-19.531,40.527,16.602,-24.414,56.152
1574477760.852,-7.812,38.574,18.066,-0.977,62.988
1574477760.856,-6.348,27.832,21.973,8.301,45.410
1574477760.860,0.000,34.180,24.902,-4.883,67.871
1574477760.864,2.930,38.574,30.762,-10.742,74.707
1574477760.868,0.000,27.344,33.203,-20.996,34.668
1574477760.871,-13.184,27.832,31.250,-21.973,30.273
1574477760.875,-35.156,32.227,30.762,-12.207,35.645
1574477760.879,-30.273,28.320,33.691,-14.160,44.434
1574477760.883,-14.648,17.090,33.691,-11.719,47.363
1574477760.887,-15.625,22.949,23.438,-3.906,-21.484
1574477760.891,-19.531,36.621,16.113,6.836,-34.180
1574477760.895,-9.277,34.180,30.762,14.160,25.879
1574477760.899,4.395,33.203,34.668,10.742,30.273
1574477760.903,-14.648,32.715,19.043,4.883,25.879
1574477760.907,-23.926,30.762,19.043,10.254,62.500
1574477760.910,-10.254,21.484,31.250,45.410,58.594
1574477760.914,-8.789,22.461,33.691,38.086,4.395
1574477760.918,-12.695,33.691,28.320,-11.719,-19.043
1574477760.922,-16.113,35.156,21.973,-36.133,59.082
1574477760.926,-10.742,34.668,22.949,-33.203,57.129
1574477760.930,-4.395,37.598,24.902,-16.113,-11.719
1574477760.934,4.883,29.785,26.367,-9.277,-8.789
1574477760.938,8.789,18.555,28.320,-3.906,-14.648
1574477760.942,-5.859,17.578,33.203,-5.371,-8.301
1574477760.946,-10.254,27.832,24.902,-3.418,6.348
1574477760.950,-2.441,43.457,16.113,6.348,75.195
1574477760.953,-9.277,41.992,23.926,24.902,60.547
1574477760.957,-16.113,26.855,21.484,24.902,-7.324
1574477760.961,-27.344,23.926,27.832,0.977,42.480
1574477760.965,-30.273,32.227,41.016,8.789,72.754
1574477760.969,-25.879,27.832,40.527,15.137,12.695
1574477760.973,-20.508,26.367,31.250,18.066,25.391
1574477760.977,-1.953,33.203,19.043,12.695,13.672
1574477760.981,-17.578,29.297,29.297,-9.277,-8.301
1574477760.985,-29.785,27.344,32.227,-0.977,45.410
1574477760.989,-20.508,26.367,12.207,12.695,48.340
1574477760.993,-13.672,27.344,28.320,17.578,54.199
1574477760.996,8.789,33.691,47.363,14.648,72.754
1574477761.000,8.301,42.480,40.039,4.883,35.156
1574477761.004,-1.953,51.270,28.320,13.672,20.020
1574477761.008,-18.066,35.645,15.137,3.906,41.992
1574477761.012,-9.766,22.461,15.625,4.395,0.977
1574477761.016,-2.930,33.691,25.879,0.977,-16.602
1574477761.020,-26.367,40.527,32.227,-18.555,17.090
1574477761.024,-33.691,39.062,37.109,-11.719,28.809
1574477761.028,-30.273,41.504,30.762,-12.207,-5.371
1574477761.032,-22.461,42.480,29.297,-1.465,-41.504
1574477761.035,-21.973,41.992,34.668,11.230,-20.508
1574477761.039,-20.996,37.109,31.738,0.977,43.945
1574477761.043,-18.066,14.648,30.273,-12.207,76.660
1574477761.047,-17.578,18.066,31.250,-4.395,82.031
1574477761.051,-6.348,43.457,21.484,19.531,10.254
1574477761.055,6.348,43.457,8.301,34.180,41.504
1574477761.059,9.277,25.391,24.902,26.855,105.469
1574477761.063,-14.648,17.090,37.598,4.883,6.348
1574477761.067,-33.203,27.832,23.438,0.977,0.488
1574477761.071,-16.113,32.715,18.555,19.531,-7.812
1574477761.075,-6.348,38.086,23.926,29.297,-25.879
1574477761.078,-3.418,41.504,35.156,18.066,3.418
1574477761.082,-12.207,34.180,45.898,-2.441,-23.438
1574477761.086,-23.926,23.438,40.527,-5.371,-6.348
1574477761.090,-13.672,17.090,18.066,-10.254,22.461
1574477761.094,11.230,23.926,17.090,-1.465,16.602
1574477761.098,18.066,29.297,29.297,-8.301,47.363
1574477761.102,-3.906,31.738,32.715,-26.367,45.898
1574477761.106,-15.137,30.273,35.156,-22.949,47.852
1574477761.110,-14.160,31.738,30.273,-27.344,63.477
1574477761.114,-10.742,29.297,31.738,-19.043,25.391
1574477761.117,-17.090,21.973,31.250,-11.719,26.367
1574477761.121,-24.902,22.949,25.391,-4.395,18.555
1574477761.125,-18.555,32.715,17.090,-3.418,-19.043
1574477761.129,-8.301,51.758,16.602,-11.719,-1.465
1574477761.133,-5.859,46.387,23.926,-5.859,46.875
1574477761.137,-5.371,38.086,22.949,10.254,32.227
1574477761.141,-9.766,33.691,30.273,11.719,21.973
1574477761.145,-19.531,29.785,38.574,1.465,31.250
1574477761.149,-21.973,30.762,31.250,7.324,35.645
1574477761.153,-12.695,30.762,22.949,14.648,2.441
1574477761.157,-6.348,25.879,19.043,3.906,3.906
1574477761.160,-15.137,27.344,9.766,-13.672,36.133
1574477761.164,-14.160,40.039,11.719,-20.508,24.414
1574477761.168,-4.395,49.805,28.320,-11.230,32.227
1574477761.172,0.977,34.668,36.133,-10.742,-11.230
1574477761.176,4.395,23.438,31.250,-10.254,-37.109
1574477761.180,-4.883,32.715,26.855,-12.695,15.137
1574477761.184,-17.090,23.438,30.273,-13.184,2.930
1574477761.188,-21.973,29.297,29.297,-5.371,13.672
1574477761.192,-18.555,44.434,32.227,0.488,-14.648
1574477761.196,-9.766,41.992,28.809,15.137,25.391
1574477761.200,-16.113,40.527,18.066,-2.930,48.828
1574477761.203,-18.066,36.621,22.461,-21.973,24.414
1574477761.207,-17.090,25.391,33.203,-2.930,13.184
1574477761.211,-9.766,26.855,37.598,6.348,-8.789
1574477761.215,-2.930,31.250,34.668,9.277,-9.277
1574477761.219,-15.137,24.414,28.320,7.324,0.977
1574477761.223,-24.414,26.855,28.320,4.883,20.020
1574477761.227,-17.578,34.180,30.273,-8.789,5.859
1574477761.231,-12.207,30.273,31.250,-20.996,-8.789
1574477761.235,-14.160,32.227,28.320,-10.742,7.812
1574477761.239,-3.906,41.992,17.090,3.418,25.879
1574477761.242,-1.465,46.875,19.043,7.812,28.809
1574477761.246,-15.137,28.320,22.461,-5.371,41.504
1574477761.250,-18.066,20.020,24.902,-23.438,63.965
1574477761.254,-8.789,36.621,32.227,-9.766,29.297
1574477761.258,-7.812,37.598,37.598,0.000,29.785
1574477761.262,-11.719,25.391,28.320,6.836,40.039
1574477761.266,-19.531,17.578,7.812,12.695,27.832
1574477761.270,-21.973,13.184,20.508,-1.953,46.875
1574477761.274,-17.578,25.391,41.016,10.254,33.203
1574477761.278,-13.184,38.574,35.156,19.043,6.836
1574477761.282,-12.695,42.969,37.598,10.254,18.555
1574477761.285,-12.695,30.273,30.273,15.137,-33.203
1574477761.289,-5.371,13.672,-0.977,15.137,-30.762
1574477761.293,-11.230,13.672,0.977,0.488,40.527
1574477761.297,-24.902,13.184,26.855,-8.301,49.316
1574477761.301,-29.297,27.344,25.879,-7.324,56.641
1574477761.305,-42.480,37.109,32.715,-10.742,36.133
1574477761.309,-30.273,13.672,58.105,-11.230,52.734
1574477761.313,-8.301,4.395,43.945,-8.789,49.316
1574477761.317,-2.930,36.133,21.484,-5.371,14.648
1574477761.321,-14.160,49.316,22.461,-2.930,6.836
1574477761.325,-13.184,39.551,24.902,-15.625,37.109
1574477761.328,-11.719,33.203,29.297,-26.367,17.090
1574477761.332,-16.602,29.785,23.926,-17.578,11.719
1574477761.336,-6.348,27.832,25.391,0.488,27.344
1574477761.340,-5.371,26.855,33.203,1.465,8.789
1574477761.344,-3.906,18.066,20.020,-4.395,10.254
1574477761.348,-10.254,8.301,21.973,14.160,34.668
1574477761.352,-5.859,25.879,37.109,21.973,14.160
1574477761.356,3.418,41.016,24.414,17.578,51.758
1574477761.360,-9.277,23.438,34.668,11.719,67.871
1574477761.364,-27.344,13.672,47.852,-3.418,56.152
1574477761.367,-39.551,23.926,45.410,-6.836,62.500
1574477761.371,-26.855,31.250,44.434,-3.418,29.297
1574477761.375,-9.766,31.738,26.367,6.348,-14.648
1574477761.379,-19.531,24.414,20.508,10.254,-3.906
1574477761.383,-25.391,27.344,34.180,16.113,-18.066
1574477761.387,-10.742,33.691,40.527,20.020,-24.902
1574477761.391,1.953,32.715,30.762,29.785,22.461
1574477761.395,6.836,28.809,15.625,20.020,-17.578
1574477761.399,-0.488,32.227,23.926,-0.977,51.270
1574477761.403,-16.113,34.668,37.598,1.953,73.242
1574477761.407,-10.742,22.949,40.039,0.000,-1.953
1574477761.410,4.395,26.855,27.832,4.883,10.742
1574477761.414,10.254,42.969,23.926,21.973,45.898
1574477761.418,5.859,41.992,31.738,19.043,50.781
1574477761.422,-8.301,26.855,27.344,5.859,59.082
1574477761.426,-17.090,20.996,22.949,8.301,14.648
1574477761.430,-14.648,32.715,28.809,13.184,-25.391
1574477761.434,-6.836,29.297,35.156,25.391,-20.020
1574477761.438,-14.648,28.320,30.762,26.855,47.363
1574477761.442,-22.949,34.668,29.297,22.461,62.988
1574477761.446,-17.090,33.203,31.738,20.020,0.977
1574477761.449,-8.301,33.691,29.785,9.277,-36.621
1574477761.453,-5.859,28.320,27.832,1.953,-11.230
1574477761.457,-10.742,18.555,31.250,6.348,35.156
1574477761.461,-18.555,20.996,37.598,13.672,10.742
1574477761.465,-17.578,28.809,28.809,17.090,-24.902
1574477761.469,-5.859,34.668,32.715,33.203,-53.711
1574477761.473,-2.441,31.738,33.691,36.133,-44.922
1574477761.477,-11.230,23.438,23.438,16.113,27.832
1574477761.481,-11.230,24.902,28.809,8.301,41.504
1574477761.485,-14.648,27.344,30.273,11.230,28.809
1574477761.489,-12.207,31.738,24.414,11.719,38.086
1574477761.492,-3.418,45.410,21.484,25.391,41.016
1574477761.496,-2.930,46.875,24.902,35.156,10.254
1574477761.500,-2.930,32.227,34.180,26.855,8.789
1574477761.504,-17.090,22.949,37.109,16.602,8.301
1574477761.508,-25.879,19.531,35.645,16.113,-9.277
1574477761.512,-15.137,23.438,30.273,26.367,25.879
1574477761.516,-11.230,36.621,27.344,27.344,6.836
1574477761.520,-15.625,36.133,28.320,13.184,20.020
1574477761.524,-19.043,23.926,28.320,10.742,79.590
1574477761.528,-14.648,24.902,27.344,24.414,66.406
1574477761.532,-4.395,42.480,26.367,48.340,42.480
1574477761.535,6.348,46.387,29.785,43.457,35.156
1574477761.539,-4.883,34.668,27.832,14.160,6.348
1574477761.543,-18.066,30.762,32.715,3.418,-13.672
1574477761.547,-13.672,20.020,41.016,11.230,-36.621
1574477761.551,0.000,21.973,36.621,30.273,-7.812
1574477761.555,-0.977,36.621,26.367,25.879,14.648
1574477761.559,-16.602,39.062,15.137,11.719,-19.531
1574477761.563,-8.789,39.062,21.973,8.789,-26.367
1574477761.567,0.977,42.969,33.691,4.395,47.363
1574477761.571,-3.418,42.480,41.016,11.230,98.145
1574477761.574,4.395,41.016,40.527,27.832,16.602
1574477761.578,-4.395,37.109,23.438,13.184,16.602
1574477761.582,-19.043,22.949,27.344,5.371,98.145
1574477761.586,-20.996,18.555,40.039,9.277,42.480
1574477761.590,-16.602,29.785,41.992,17.090,18.066
1574477761.594,-5.859,39.551,25.391,23.926,42.480
1574477761.598,-16.602,42.969,19.531,9.277,38.574
1574477761.602,-23.438,43.457,28.809,0.488,14.648
1574477761.606,-5.371,42.969,30.762,0.977,-12.695
1574477761.610,0.977,35.645,28.809,15.137,-0.977
1574477761.614,0.488,21.973,24.902,33.203,-58.594
1574477761.617,-5.371,19.531,25.879,13.672,-48.340
1574477761.621,-23.438,29.785,32.227,-13.184,55.176
1574477761.625,-33.203,25.879,30.273,-11.230,74.707
1574477761.629,-28.320,25.391,26.855,-3.418,52.246
1574477761.633,-17.578,29.785,21.973,-4.395,40.039
1574477761.637,-6.348,34.668,26.855,-18.066,73.242
1574477761.641,-4.395,35.156,41.016,-17.578,52.734
1574477761.645,-15.137,18.555,27.832,-7.812,33.691
1574477761.649,-24.414,25.391,21.973,-5.859,35.645
1574477761.653,-13.672,42.480,41.016,1.953,18.555
1574477761.656,-4.395,35.645,43.457,20.020,-0.488
1574477761.660,-2.441,21.484,25.879,14.648,-0.488
1574477761.664,0.000,23.926,31.250,5.371,9.277
1574477761.668,-6.348,22.461,47.852,3.418,33.203
1574477761.672,-10.254,25.879,42.480,-5.371,41.016
1574477761.676,-6.348,21.484,37.109,-0.488,4.395
1574477761.680,-20.020,22.949,34.668,3.906,-2.930
1574477761.684,-39.062,31.250,29.785,-15.137,57.129
1574477761.688,-25.879,31.250,35.156,-14.648,91.309
1574477761.692,-15.625,23.438,34.180,-3.906,61.523
1574477761.696,-13.184,12.695,24.902,5.859,12.695
1574477761.699,-20.996,21.484,29.785,1.465,28.320
1574477761.703,-23.926,23.926,40.039,3.418,51.270
1574477761.707,-20.020,10.742,42.969,26.367,32.715
1574477761.711,-16.113,21.484,39.551,18.555,70.312
1574477761.715,3.418,36.621,40.039,15.625,32.227
1574477761.719,-5.859,30.762,38.574,34.668,45.898
1574477761.723,-27.344,17.090,25.879,16.602,77.637
1574477761.727,-27.832,17.578,22.949,-16.113,21.973
1574477761.731,-15.137,27.344,24.902,-25.391,31.250
1574477761.735,-13.184,25.879,23.926,-12.695,23.926
1574477761.739,-25.391,20.020,36.133,1.465,15.137
1574477761.742,-29.297,20.996,45.410,0.488,20.020
1574477761.746,-17.090,32.227,41.016,-5.859,-0.488
1574477761.750,-10.742,41.504,33.691,7.324,-24.902
1574477761.754,-10.742,32.715,29.297,17.578,-79.590
1574477761.758,-9.277,16.602,34.668,-0.488,-32.715
1574477761.762,-5.859,19.043,43.457,1.465,0.000
1574477761.766,-9.277,23.438,41.504,3.418,-3.906
1574477761.770,-21.484,22.461,31.250,-4.395,46.875
1574477761.774,-12.207,28.320,31.250,17.090,76.660
1574477761.778,-8.301,32.227,26.855,22.461,80.078
1574477761.781,-20.996,24.902,27.344,3.906,44.922
1574477761.785,-26.367,23.926,36.621,4.883,53.711
1574477761.789,-23.926,25.879,30.273,6.836,36.621
1574477761.793,-11.719,22.461,26.855,29.297,25.879
1574477761.797,-8.301,23.438,29.297,35.156,29.297
1574477761.801,-19.043,24.414,24.902,8.789,-1.953
1574477761.805,-16.602,27.344,37.109,3.418,15.625
1574477761.809,-6.348,23.438,35.645,8.789,-30.273
1574477761.813,-4.883,19.043,13.672,6.348,-12.207
1574477761.817,-4.883,25.879,12.695,3.906,53.223
1574477761.821,-3.418,35.645,30.273,7.812,50.781
1574477761.824,-8.789,36.133,36.621,8.301,55.176
1574477761.828,-18.066,28.320,35.645,-4.883,26.367
1574477761.832,-22.461,20.996,30.762,7.812,6.348
1574477761.836,-15.137,27.344,26.367,26.855,47.363
1574477761.840,-11.719,38.574,33.691,16.113,72.266
1574477761.844,-14.160,35.645,25.879,6.348,29.297
1574477761.848,-18.555,24.414,23.438,7.812,-16.113
1574477761.852,-10.742,10.742,30.273,20.020,-17.090
1574477761.856,5.859,18.066,31.250,37.109,6.836
1574477761.860,-4.395,37.598,27.344,35.156,18.066
1574477761.864,-14.160,35.156,31.250,15.625,25.879
1574477761.867,-8.789,33.691,44.922,14.160,37.109
1574477761.871,-12.207,32.715,41.504,27.832,30.762
1574477761.875,-9.766,36.621,30.273,27.344,-17.578
1574477761.879,-10.254,43.945,20.996,16.113,16.602
1574477761.883,-14.648,38.086,20.020,10.742,47.852
1574477761.887,-26.855,33.203,25.391,0.977,-19.531
1574477761.891,-28.809,31.250,21.484,2.930,33.691
1574477761.895,-5.371,28.320,23.438,14.160,50.781
1574477761.899,4.395,22.949,27.344,17.578,19.531
1574477761.903,-11.719,19.043,23.438,3.906,36.133
1574477761.906,-18.066,22.949,30.762,-5.859,38.574
1574477761.910,-19.043,21.973,33.691,-4.395,-8.789
1574477761.914,-14.160,26.855,35.645,9.766,5.371
1574477761.918,2.441,32.227,38.086,24.414,-20.020
1574477761.922,-6.836,26.367,21.484,-4.395,-8.789
1574477761.926,-20.996,24.902,14.648,-20.996,18.066
1574477761.930,-14.648,28.320,24.414,-8.301,6.348
1574477761.934,-11.230,24.902,20.508,4.395,16.602
1574477761.938,-17.578,26.855,8.789,16.602,0.488
1574477761.942,-22.949,31.738,16.113,8.789,48.828
1574477761.946,-21.484,33.203,26.855,5.859,44.922
1574477761.949,-7.812,26.367,33.203,19.531,24.902
1574477761.953,-4.395,22.461,39.551,21.484,50.293
1574477761.957,-8.789,24.902,43.945,16.602,22.949
1574477761.961,-10.742,21.484,39.062,-5.371,19.531
1574477761.965,-18.066,27.344,31.738,-9.277,25.879
1574477761.969,-14.648,33.203,24.902,11.230,23.438
1574477761.973,-12.695,29.297,13.672,4.883,26.855
1574477761.977,-15.625,33.691,19.531,6.836,-24.414
1574477761.981,-15.625,43.457,28.320,7.324,-45.410
1574477761.985,-17.090,39.062,25.391,-2.441,45.898
1574477761.988,-13.184,28.809,32.227,-1.953,40.527
1574477761.992,-5.371,18.066,42.480,20.996,27.832
1574477761.996,-12.207,11.230,30.762,35.645,54.199
1574477762.000,-10.254,26.367,23.926,15.625,68.359
1574477762.004,-14.160,37.109,24.902,3.418,84.473
1574477762.008,-19.531,28.320,16.602,-5.859,56.152
1574477762.012,-13.184,26.367,19.531,-1.953,23.926
1574477762.016,-9.766,35.645,19.043,11.230,20.996
1574477762.020,-10.254,42.480,23.926,12.695,60.059
1574477762.024,-18.066,42.480,31.738,4.395,41.504
1574477762.028,-18.066,39.551,38.574,-2.930,18.066
1574477762.031,-12.207,25.391,36.133,3.906,50.781
1574477762.035,-3.418,20.508,32.715,26.367,4.883
1574477762.039,-3.906,33.203,38.086,22.949,-2.930
1574477762.043,-10.742,29.785,32.715,1.953,5.859
1574477762.047,-18.066,21.484,25.391,6.348,-5.371
1574477762.051,-17.578,26.855,20.996,11.719,3.906
1574477762.055,-2.930,32.715,18.555,11.719,42.480
1574477762.059,-1.953,29.785,32.715,14.160,42.969
1574477762.063,-21.973,25.391,40.527,-0.977,17.578
1574477762.067,-21.973,28.320,38.574,-11.719,19.043
1574477762.071,-4.883,35.645,35.156,-0.977,20.020
1574477762.074,8.301,36.133,36.621,20.508,25.391
1574477762.078,5.859,32.227,56.641,29.297,15.625
1574477762.082,-10.742,26.855,55.176,4.883,-19.531
1574477762.086,-17.578,27.344,40.039,-17.578,-76.172
1574477762.090,-12.207,22.461,33.691,-16.113,-28.320
1574477762.094,3.906,16.113,32.227,0.977,33.203
1574477762.098,0.977,25.879,33.203,2.930,39.062
1574477762.102,-6.348,37.598,35.156,1.953,32.227
1574477762.106,0.977,41.992,38.086,10.742,33.691
1574477762.110,13.184,41.016,38.086,8.789,38.086
1574477762.113,4.883,40.527,38.574,6.836,37.598
1574477762.117,-3.906,29.785,41.016,17.578,38.574
1574477762.121,5.371,26.855,35.156,21.484,28.809
1574477762.125,-9.766,27.344,20.996,2.930,15.625
1574477762.129,-15.625,22.949,19.531,-6.348,-23.926
1574477762.133,-2.441,36.621,31.250,-8.301,-7.324
1574477762.137,2.930,43.945,36.133,-0.977,28.809
1574477762.141,-1.465,33.691,32.227,8.789,37.598
1574477762.145,-2.930,32.715,30.273,-2.441,12.695
1574477762.149,1.465,39.062,31.250,-9.277,35.156
1574477762.153,5.371,31.250,38.086,-5.859,53.223
1574477762.156,10.254,33.203,42.969,3.418,-4.883
1574477762.160,-1.465,36.133,34.180,12.695,-8.301
1574477762.164,-18.555,26.855,20.020,-9.766,15.137
1574477762.168,-22.949,26.855,13.184,-14.648,57.617
1574477762.172,-8.301,35.645,19.043,0.977,26.367
1574477762.176,6.348,37.598,25.391,-2.930,10.742
1574477762.180,3.906,36.621,23.926,-1.465,32.715
1574477762.184,-5.371,31.250,28.809,-7.812,15.625
1574477762.188,0.000,29.785,37.109,0.977,38.574
1574477762.192,6.836,40.039,36.621,4.883,51.758
1574477762.195,6.836,38.086,36.133,-15.137,28.320
1574477762.199,7.812,27.832,40.039,-9.277,-20.508
1574477762.203,5.371,29.785,37.109,4.395,-30.762
1574477762.207,-10.254,37.109,28.809,-0.977,-1.465
1574477762.211,-11.719,41.992,29.297,-12.695,9.277
1574477762.215,-0.977,39.551,32.715,-8.789,45.898
1574477762.219,-8.789,29.785,34.180,-9.277,38.574
1574477762.223,-15.625,16.113,40.039,-15.625,59.570
1574477762.227,-26.367,18.555,40.039,-16.602,28.809
1574477762.231,-27.344,32.227,34.668,-19.043,-20.020
1574477762.235,-14.648,34.668,33.203,-19.531,2.441
1574477762.238,-12.695,26.855,19.531,-6.836,17.578
1574477762.242,-19.043,24.414,19.043,7.324,46.875
1574477762.246,-23.438,28.320,34.668,-3.906,30.762
1574477762.250,-16.602,26.855,35.645,-20.020,1.953
1574477762.254,-11.719,32.715,31.250,-5.371,12.207
1574477762.258,-12.207,33.691,28.320,-2.441,19.531
1574477762.262,-17.578,26.855,31.250,-7.812,84.473
1574477762.266,-17.578,21.484,41.016,-3.418,93.262
1574477762.270,-16.602,13.184,41.016,-2.930,-1.465
1574477762.274,-7.812,20.996,36.133,4.395,8.789
1574477762.278,-10.742,37.109,34.180,-1.465,59.570
1574477762.281,-22.949,42.969,31.738,-22.461,28.320
1574477762.285,-13.672,41.992,34.668,-11.719,-1.953
1574477762.289,4.883,41.016,34.668,0.000,11.230
1574477762.293,8.301,24.902,32.227,-1.953,33.203
1574477762.297,-3.418,18.555,33.691,2.441,90.332
1574477762.301,-6.348,39.062,32.227,-10.254,93.262
1574477762.305,-12.695,43.945,26.367,-22.949,27.344
1574477762.309,-19.531,39.062,29.297,-20.996,5.371
1574477762.313,-11.719,38.086,36.621,-10.254,2.930
1574477762.317,-2.441,37.109,37.109,2.930,9.766
1574477762.320,-1.953,36.133,36.133,5.859,-22.461
1574477762.324,-13.184,34.668,24.902,-10.254,-24.414
1574477762.328,-26.367,27.344,15.625,-4.883,-35.645
1574477762.332,-23.926,29.785,31.250,-9.766,-42.480
1574477762.336,-16.602,35.645,40.527,-25.879,5.371
1574477762.340,-14.160,27.832,36.621,-6.348,1.953
1574477762.344,-17.578,21.973,35.156,-7.324,59.082
1574477762.348,-21.973,33.203,30.273,-19.531,37.598
1574477762.352,-5.859,39.551,29.297,-7.324,-37.598
1574477762.356,5.859,30.762,30.762,4.395,41.992
1574477762.360,3.906,34.668,23.926,-11.230,71.777
1574477762.363,-9.277,42.969,18.066,-24.902,35.156
1574477762.367,-21.973,37.598,31.738,-17.090,18.555
1574477762.371,-15.625,27.344,42.969,-13.672,10.254
1574477762.375,2.441,21.484,39.551,1.465,11.230
1574477762.379,7.324,26.367,46.387,2.930,20.996
1574477762.383,-18.555,32.715,45.898,-14.648,28.809
1574477762.387,-34.180,27.344,42.969,-9.277,29.297
1574477762.391,-27.832,32.227,38.086,-1.953,46.875
1574477762.395,-10.254,34.668,33.691,2.441,53.223
1574477762.399,8.301,28.320,30.273,1.953,-6.348
1574477762.403,-1.465,36.133,20.020,-2.930,6.836
1574477762.406,-17.090,37.109,24.902,-7.324,88.867
1574477762.410,-19.043,33.203,35.156,-8.301,90.820
1574477762.414,-13.672,28.809,38.574,-6.348,69.824
1574477762.418,-9.766,23.438,40.527,-6.348,60.059
1574477762.422,0.000,29.785,43.457,-1.953,75.195
1574477762.426,-1.465,27.832,42.480,1.465,75.195
1574477762.430,-12.207,16.113,26.855,4.395,54.688
1574477762.434,-12.207,28.320,17.578,3.418,55.176
1574477762.438,-17.090,41.016,22.461,2.441,-0.488
1574477762.442,-28.809,41.504,34.180,17.090,5.859
1574477762.445,-35.645,36.621,37.598,7.324,35.156
1574477762.449,-24.414,30.762,29.785,-15.625,66.406
1574477762.453,-10.742,25.879,31.738,-16.602,50.293
1574477762.457,-9.277,14.648,37.598,-12.695,63.477
1574477762.461,-11.719,4.395,39.062,-14.160,24.902
1574477762.465,-11.719,14.648,36.133,-16.113,0.977
1574477762.469,3.906,34.180,28.809,-8.789,42.480
1574477762.473,8.301,37.109,19.531,5.859,31.250
1574477762.477,-2.441,38.086,23.438,17.578,33.691
1574477762.481,-11.719,41.016,24.902,15.137,6.836
1574477762.485,-22.949,36.133,20.996,5.859,-3.906
1574477762.488,-16.113,24.902,30.762,0.000,-3.418
1574477762.492,-9.277,16.602,37.109,-0.977,5.371
1574477762.496,-9.277,24.414,34.668,3.906,54.688
1574477762.500,-8.301,28.320,36.621,13.184,18.066
1574477762.504,-18.555,32.227,30.762,2.930,11.719
1574477762.508,-17.578,38.086,22.949,-3.418,27.832
1574477762.512,-6.836,35.156,16.113,12.695,10.742
1574477762.516,-4.395,33.691,15.625,20.996,-8.301
1574477762.520,-5.859,29.297,26.855,15.137,-24.414
1574477762.524,-10.254,26.855,39.062,20.020,-11.719
1574477762.527,-13.184,27.344,33.203,6.348,-16.113
1574477762.531,-10.742,23.926,30.273,-3.906,4.395
1574477762.535,-6.836,27.344,30.762,19.043,28.320
1574477762.539,-3.418,32.715,15.625,18.066,36.133
1574477762.543,-10.254,30.273,14.160,-5.859,14.160
1574477762.547,-11.230,22.949,24.902,-10.254,30.762
1574477762.551,-6.836,31.250,20.996,11.230,28.809
1574477762.555,-11.719,41.016,17.090,15.625,46.875
1574477762.559,-4.395,30.273,23.926,14.160,83.984
1574477762.563,1.465,17.578,21.973,9.766,41.016
1574477762.567,-13.672,22.461,20.508,1.465,23.438
1574477762.570,-18.066,31.738,29.785,16.113,-22.949
1574477762.574,-12.695,32.227,30.273,11.719,3.906
1574477762.578,-12.207,33.203,26.855,1.953,51.270
1574477762.582,-6.836,41.992,27.344,17.090,41.016
1574477762.586,-6.836,40.527,23.438,19.043,89.355
1574477762.590,-6.836,35.645,21.973,6.348,-4.883
1574477762.594,-8.789,35.156,23.926,-0.488,-41.992
1574477762.598,-8.789,28.809,28.320,5.371,13.184
1574477762.602,-4.883,22.461,35.645,17.578,-1.953
1574477762.606,-14.648,27.832,31.738,11.230,-32.227
1574477762.610,-10.742,32.227,29.785,21.484,-3.906
1574477762.613,8.301,27.344,25.879,37.109,25.879
1574477762.617,11.230,28.320,20.020,12.207,17.090
1574477762.621,-9.277,28.809,20.996,1.465,5.371
1574477762.625,-32.227,25.391,18.555,-4.395,24.414
1574477762.629,-28.809,28.320,16.113,5.859,56.641
1574477762.633,-8.789,29.785,22.461,13.672,32.715
1574477762.637,2.930,31.250,35.645,3.906,37.598
1574477762.641,3.418,32.715,41.016,7.324,28.809
1574477762.645,-0.977,28.320,38.574,-2.930,31.250
1574477762.649,-7.812,24.902,33.203,-9.766,73.730
1574477762.652,-12.207,32.715,28.320,4.395,80.078
1574477762.656,-2.930,41.504,26.367,14.648,53.711
1574477762.660,-0.488,38.574,20.996,8.301,45.410
1574477762.664,-8.789,30.762,20.020,11.230,40.039
1574477762.668,-2.441,31.250,25.391,14.648,-23.926
1574477762.672,-9.766,31.738,26.367,-6.836,-18.555
1574477762.676,-11.230,29.297,25.391,-5.859,-21.484
1574477762.680,-9.277,34.180,25.879,5.371,-45.410
1574477762.684,-10.254,33.691,30.762,-19.043,38.086
1574477762.688,-6.836,30.273,32.227,-20.996,36.133
1574477762.692,-14.648,35.645,25.391,-5.859,8.789
1574477762.695,-13.184,41.504,27.344,-13.672,43.457
1574477762.699,-4.395,44.922,27.832,-17.578,41.016
1574477762.703,-6.348,49.805,22.949,-11.719,6.348
1574477762.707,-6.348,41.504,18.555,-4.883,-5.859
1574477762.711,1.953,27.832,21.484,3.418,44.922
1574477762.715,8.301,32.227,26.855,14.160,42.480
1574477762.719,14.160,44.434,23.926,7.812,13.184
1574477762.723,10.254,45.410,18.555,-19.043,37.109
