timestamps,TP9,AF7,AF8,TP10,Right AUX
1575280166.273,-953.125,999.512,999.512,-1000.000,195.312
1575280166.277,-927.734,999.512,999.512,-625.977,-33.691
1575280166.281,433.105,999.512,999.512,735.840,212.402
1575280166.285,-828.125,999.512,999.512,-858.398,665.527
1575280166.289,754.883,999.512,999.512,663.574,627.930
1575280166.293,-595.703,999.512,999.512,-814.453,-91.797
1575280166.296,-1000.000,999.512,999.512,-840.820,-229.980
1575280166.300,208.496,999.512,999.512,636.719,39.551
1575280166.304,-898.438,999.512,999.512,-929.199,488.281
1575280166.308,-976.074,999.512,999.512,994.141,497.070
1575280166.312,-161.133,999.512,999.512,-342.773,48.828
1575280166.316,-1000.000,999.512,999.512,-838.867,-53.223
1575280166.320,164.551,999.512,999.512,757.812,-81.055
1575280166.324,-933.594,999.512,-994.141,-999.023,243.164
1575280166.328,-905.273,999.512,940.918,-856.934,437.012
1575280166.332,212.402,999.512,-901.855,248.535,222.168
1575280166.336,-1000.000,999.512,518.066,-507.812,44.434
1575280166.339,46.875,999.512,-792.969,909.180,-50.293
1575280166.343,-921.387,999.512,-1000.000,-939.941,56.641
1575280166.347,-913.086,999.512,-927.734,961.426,181.152
1575280166.351,270.020,999.512,-978.027,988.770,497.070
1575280166.355,-1000.000,999.512,-970.703,605.957,-188.965
1575280166.359,-172.852,999.512,-970.703,841.309,-371.094
1575280166.363,-965.332,999.512,-970.215,-983.398,224.121
1575280166.367,-887.207,999.512,-970.215,-989.258,304.199
1575280166.371,255.859,999.512,-970.215,985.840,431.641
1575280166.375,-1000.000,999.512,-970.215,-271.484,208.496
1575280166.378,-200.684,999.512,-970.215,181.152,-318.848
1575280166.382,-974.609,999.512,-975.586,-896.484,-376.465
1575280166.386,-895.996,999.512,-947.266,-938.965,322.266
1575280166.390,264.160,999.512,-960.938,532.715,815.918
1575280166.394,-1000.000,999.512,-961.426,-1000.000,308.594
1575280166.398,-525.391,999.512,165.527,-313.477,-175.293
1575280166.402,870.605,999.512,-916.016,-982.910,67.383
1575280166.406,-821.289,999.512,961.914,-874.512,148.926
1575280166.410,170.410,999.512,989.258,182.129,268.066
1575280166.414,-969.727,999.512,-997.070,-953.613,521.484
1575280166.418,-1000.000,999.512,999.512,-1000.000,100.098
1575280166.421,-55.664,999.512,999.512,-68.848,-477.539
1575280166.425,-815.918,999.512,999.512,669.434,-361.816
1575280166.429,-163.086,999.512,999.512,-854.980,202.637
1575280166.433,-1000.000,999.512,999.512,-970.703,446.777
1575280166.437,-1000.000,999.512,999.512,-1000.000,39.551
1575280166.441,-244.141,999.512,999.512,-498.047,-562.988
1575280166.445,-796.387,999.512,999.512,668.945,-508.301
1575280166.449,137.207,999.512,999.512,-587.891,-17.578
1575280166.453,-1000.000,999.512,999.512,-1000.000,333.008
1575280166.457,-1000.000,999.512,999.512,-987.793,84.961
1575280166.461,-229.980,999.512,999.512,-770.508,-626.465
1575280166.464,-795.898,999.512,999.512,784.180,-675.293
1575280166.468,196.777,999.512,999.512,6.836,36.133
1575280166.472,-1000.000,999.512,999.512,-1000.000,383.789
1575280166.476,-1000.000,999.512,999.512,-889.648,104.492
1575280166.480,-327.637,999.512,999.512,-1000.000,-379.395
1575280166.484,-830.566,999.512,999.512,226.074,-399.902
1575280166.488,320.801,999.512,999.512,149.902,124.023
1575280166.492,-964.355,999.512,999.512,-1000.000,154.785
1575280166.496,-1000.000,999.512,999.512,-919.434,-171.875
1575280166.500,-381.348,999.512,999.512,-1000.000,-333.496
1575280166.503,-926.270,999.512,999.512,324.707,-240.723
1575280166.507,777.832,999.512,999.512,341.797,240.234
1575280166.511,-624.512,999.512,999.512,-1000.000,482.910
1575280166.515,-1000.000,999.512,999.512,-937.988,153.320
1575280166.519,-319.824,999.512,999.512,-1000.000,-270.508
1575280166.523,965.332,999.512,999.512,376.465,-333.496
1575280166.527,-908.203,999.512,-995.117,580.078,44.922
1575280166.531,-95.703,-987.305,967.773,-975.586,269.043
1575280166.535,-1000.000,945.312,-986.328,-961.426,30.762
1575280166.539,-294.922,-958.008,891.602,-1000.000,-406.250
1575280166.543,949.707,907.227,-283.691,223.633,-481.445
1575280166.546,-863.281,-607.422,-1000.000,939.941,-174.805
1575280166.550,251.953,-1000.000,-930.176,-640.137,44.434
1575280166.554,-1000.000,399.902,-964.355,-1000.000,-57.129
1575280166.558,-410.645,-306.641,-972.656,-1000.000,-453.613
1575280166.562,937.500,-1000.000,-970.703,-19.043,-638.672
1575280166.566,-858.887,-899.902,-970.703,-861.328,-336.426
1575280166.570,243.652,-977.539,-970.215,-286.133,12.207
1575280166.574,-1000.000,-970.215,-970.215,-1000.000,-64.941
1575280166.578,-585.449,-970.215,-970.215,-1000.000,-548.828
1575280166.582,807.129,-970.215,-970.215,-204.102,-774.414
1575280166.585,-817.383,-970.215,-970.703,-878.418,-417.969
1575280166.589,253.906,-970.215,-970.215,-219.727,-49.805
1575280166.593,-1000.000,-970.215,-970.215,-1000.000,-2.441
1575280166.597,-899.414,-970.215,-970.215,-1000.000,-317.383
1575280166.601,390.137,-970.215,-970.215,-354.980,-595.215
1575280166.605,-773.438,-970.215,-970.703,-915.039,-443.359
1575280166.609,538.086,-970.215,-970.215,-132.324,479.004
1575280166.613,-891.113,-970.215,-970.215,-1000.000,781.738
1575280166.617,-977.051,-970.703,-970.215,-1000.000,88.867
1575280166.621,400.879,-970.215,-970.215,-270.508,-177.246
1575280166.625,-850.098,-908.691,-970.703,-804.199,21.973
1575280166.628,838.379,-1000.000,-970.703,253.906,582.031
1575280166.632,-511.230,-174.316,-970.703,-866.699,911.133
1575280166.636,-1000.000,-925.293,-979.980,-1000.000,104.492
1575280166.640,311.035,980.957,-900.879,-172.363,-195.801
1575280166.644,-874.512,973.145,-1000.000,-824.707,242.188
1575280166.648,951.660,-994.141,-415.039,677.734,472.656
1575280166.652,-225.586,999.512,958.496,-659.668,344.727
1575280166.656,-1000.000,999.512,-975.586,-1000.000,-227.051
1575280166.660,-189.453,999.512,954.590,-621.582,-474.121
1575280166.664,-847.656,999.512,-988.770,944.824,-310.059
1575280166.668,706.055,999.512,999.512,461.914,214.844
1575280166.671,-656.738,999.512,999.512,-1000.000,231.934
1575280166.675,-1000.000,999.512,999.512,-913.086,-317.383
1575280166.679,-500.977,999.512,999.512,-1000.000,-824.707
1575280166.683,-985.840,999.512,999.512,19.531,-417.969
1575280166.687,726.074,999.512,999.512,343.750,214.844
1575280166.691,-744.141,999.512,999.512,-1000.000,151.367
1575280166.695,-1000.000,999.512,999.512,-911.621,-287.598
1575280166.699,-808.105,999.512,999.512,-1000.000,-508.301
1575280166.703,611.328,999.512,999.512,-59.570,-210.938
1575280166.707,-999.512,999.512,-1000.000,405.762,280.762
1575280166.710,-515.137,999.512,984.863,-1000.000,187.012
1575280166.714,-1000.000,999.512,-958.008,-921.387,-242.188
1575280166.718,-974.609,999.512,820.312,-1000.000,-406.738
1575280166.722,229.980,999.512,641.113,-144.043,-159.180
1575280166.726,-785.156,999.512,-947.266,539.551,219.727
1575280166.730,-184.082,999.512,462.891,-930.176,115.723
1575280166.734,-1000.000,999.512,-778.320,-958.008,-245.605
1575280166.738,-1000.000,999.512,-996.094,-1000.000,-376.953
1575280166.742,72.754,999.512,-935.059,-311.523,-185.059
1575280166.746,-733.887,999.512,-974.609,992.676,194.336
1575280166.750,180.664,-1000.000,-970.703,-352.539,246.094
1575280166.753,-1000.000,921.875,-970.215,-1000.000,-92.773
1575280166.757,-1000.000,-787.598,-970.215,-1000.000,-440.430
1575280166.761,51.270,93.262,-970.215,-307.129,-424.805
1575280166.765,-745.605,-582.031,-970.215,-809.082,143.066
1575280166.769,302.246,924.805,-970.215,201.660,532.715
1575280166.773,-980.957,-969.727,-970.215,-1000.000,94.238
1575280166.777,-1000.000,-952.148,-970.215,-1000.000,-436.035
1575280166.781,126.465,57.617,-970.703,-233.887,-426.758
1575280166.785,-818.848,-1000.000,-970.703,-820.312,60.059
1575280166.789,788.574,-149.902,-970.215,542.480,485.352
1575280166.793,-570.312,-957.520,-970.215,-829.102,336.426
1575280166.796,-1000.000,-863.770,-970.215,-1000.000,-230.469
1575280166.800,187.500,105.957,-970.703,-83.008,-304.688
1575280166.804,-908.691,54.199,-970.703,-969.727,362.793
1575280166.808,-957.520,-891.113,-970.215,-927.246,481.934
1575280166.812,-72.266,938.477,-970.215,48.340,-12.207
1575280166.816,-1000.000,-915.527,-970.703,-1000.000,-254.883
1575280166.820,24.414,83.008,-970.215,187.500,-170.898
1575280166.824,-944.824,-1000.000,-970.215,-885.742,102.051
1575280166.828,-905.273,-555.664,-980.957,968.262,367.676
1575280166.832,194.824,884.277,-884.277,964.355,201.172
1575280166.835,-1000.000,-987.793,-1000.000,610.840,-187.012
1575280166.839,-134.277,444.336,-447.754,838.867,-27.832
1575280166.843,-962.891,802.246,887.207,-946.777,266.602
1575280166.847,-888.184,-989.746,-941.895,944.336,489.746
1575280166.851,256.348,-935.547,854.980,-880.371,246.582
1575280166.855,-1000.000,692.383,774.902,398.438,-366.211
1575280166.859,-172.852,-708.496,884.277,338.379,-261.230
1575280166.863,-964.355,-1000.000,990.234,-957.520,205.566
1575280166.867,-899.414,-168.457,-996.582,-967.773,385.742
1575280166.871,258.789,885.742,992.676,892.578,156.250
1575280166.875,-1000.000,-904.785,-999.023,-657.227,-117.676
1575280166.878,-476.562,261.230,999.512,-311.523,-225.586
1575280166.882,899.414,-1000.000,999.512,-948.730,47.363
1575280166.886,-841.309,-384.766,999.512,-899.902,323.242
1575280166.890,211.914,999.023,999.512,396.973,203.613
1575280166.894,-1000.000,-964.844,999.512,-1000.000,-141.113
1575280166.898,-892.578,902.832,999.512,-680.664,-305.664
1575280166.902,419.434,884.277,999.512,726.074,70.801
1575280166.906,-750.488,997.070,999.512,-801.758,379.883
1575280166.910,165.039,-993.652,999.512,220.703,204.590
1575280166.914,-991.211,993.164,999.512,-992.676,-96.680
1575280166.917,-1000.000,-1000.000,999.512,-1000.000,-269.043
1575280166.921,-3.418,999.512,999.512,133.301,-46.387
1575280166.925,-749.023,999.512,999.512,-743.164,266.113
1575280166.929,173.828,999.512,999.512,217.773,216.797
1575280166.933,-991.699,999.512,999.512,-973.633,-98.633
1575280166.937,-1000.000,999.512,999.512,-1000.000,-283.203
1575280166.941,-212.891,999.512,999.512,-135.742,-67.383
1575280166.945,-791.992,999.512,999.512,-782.715,176.270
1575280166.949,350.098,999.512,999.512,397.461,186.035
1575280166.953,-948.242,999.512,999.512,-915.527,-12.207
1575280166.957,-1000.000,999.512,999.512,-1000.000,-497.070
1575280166.960,-217.773,999.512,999.512,-166.504,-140.625
1575280166.964,-847.168,999.512,999.512,-866.211,341.797
1575280166.968,690.430,999.512,999.512,778.809,287.598
1575280166.972,-702.637,999.512,999.512,-571.289,88.379
1575280166.976,-1000.000,999.512,999.512,-1000.000,-187.500
1575280166.980,-159.180,999.512,999.512,-151.855,-31.738
1575280166.984,-948.730,999.512,999.512,-942.383,218.262
1575280166.988,-981.445,999.512,999.512,-997.559,266.602
1575280166.992,-219.727,999.512,999.512,-216.797,34.668
1575280166.996,-1000.000,999.512,-997.559,-1000.000,-204.102
1575280167.000,-130.859,999.512,988.281,-152.832,-156.250
1575280167.003,-986.328,999.512,960.449,-991.211,140.137
1575280167.007,-889.160,999.512,-916.992,-887.207,261.719
1575280167.011,149.414,999.512,57.617,153.320,56.152
1575280167.015,-1000.000,999.512,-1000.000,-1000.000,-200.195
1575280167.019,-184.082,999.512,-942.383,-153.809,-179.199
1575280167.023,-981.934,999.512,-951.660,-979.004,163.574
1575280167.027,-886.719,999.512,-975.586,-886.230,306.152
1575280167.031,260.742,999.512,-970.215,391.113,135.254
1575280167.035,-1000.000,999.512,-970.215,-1000.000,-123.047
1575280167.039,-335.449,-1000.000,-970.215,-192.871,-178.711
1575280167.042,973.633,-999.512,-970.215,-962.891,91.797
1575280167.046,-873.047,954.590,-970.703,-928.711,291.504
1575280167.050,251.465,-929.199,-976.562,648.438,230.469
1575280167.054,-1000.000,519.043,-906.738,-941.406,-63.965
1575280167.058,-563.477,-733.887,-1000.000,-447.754,-211.426
1575280167.062,828.125,-888.672,-387.695,964.844,9.277
1575280167.066,-818.848,-639.160,940.430,-876.953,244.141
1575280167.070,266.602,-911.133,-979.492,478.516,166.504
1575280167.074,-1000.000,-996.094,958.496,-945.312,-167.480
1575280167.078,-976.562,-956.543,-990.723,-901.367,-291.504
1575280167.082,287.109,-973.145,999.512,460.449,-58.594
1575280167.085,-740.723,-970.703,-998.535,-768.066,191.406
1575280167.089,253.906,-970.215,987.793,341.797,137.207
1575280167.093,-968.750,-970.215,955.078,-924.316,-163.086
1575280167.097,-1000.000,-970.215,-882.812,-1000.000,-336.914
1575280167.101,17.090,-970.703,25.879,23.438,-134.766
1575280167.105,-754.883,-970.215,-1000.000,-771.973,159.180
1575280167.109,437.500,-970.215,-928.711,502.441,157.715
1575280167.113,-877.930,-970.215,-957.520,-822.266,-114.258
1575280167.117,-1000.000,-970.215,-972.656,-1000.000,-362.305
1575280167.121,-187.500,-970.215,-970.215,-192.383,-217.773
1575280167.124,-811.035,-970.215,-970.703,-813.965,122.070
1575280167.128,525.879,-970.215,-970.215,491.699,180.176
1575280167.132,-854.980,-970.215,-970.215,-851.074,-116.699
1575280167.136,-1000.000,-970.215,-970.215,-1000.000,-399.414
1575280167.140,-210.449,-970.215,-970.215,-463.867,-274.414
1575280167.144,-813.477,-970.215,-970.703,-916.992,67.383
1575280167.148,460.449,-970.215,-970.703,339.355,159.668
1575280167.152,-878.418,-970.215,-970.215,-1000.000,-77.148
1575280167.156,-1000.000,-970.215,-970.215,-909.180,-400.879
1575280167.160,-562.500,-970.215,-970.215,-1000.000,-340.332
1575280167.164,-974.121,-970.215,-970.215,105.469,53.223
1575280167.167,530.762,-970.215,-970.215,324.707,223.145
1575280167.171,-925.781,-970.215,-970.215,-1000.000,-12.695
1575280167.175,-1000.000,-970.215,-970.215,-902.344,-333.496
1575280167.179,-862.305,-971.680,-970.215,-1000.000,-352.051
1575280167.183,630.859,-962.891,-970.215,-71.289,-110.840
1575280167.187,816.895,-982.910,-970.215,333.984,166.504
1575280167.191,-778.809,-952.637,-970.215,-1000.000,70.312
1575280167.195,-996.582,-854.980,-970.215,-990.234,-327.637
1575280167.199,-1000.000,-949.219,-970.215,-932.129,-708.496
1575280167.203,214.355,-983.887,-970.215,-978.516,-753.906
1575280167.207,915.527,-962.402,-970.215,-970.215,-336.914
1575280167.210,-706.055,-972.168,-970.215,-970.215,-17.090
1575280167.214,-990.234,-970.215,-970.215,-970.215,-205.078
1575280167.218,-1000.000,-970.215,-970.703,-970.215,-642.090
1575280167.222,-137.695,-970.215,-970.215,-970.215,-812.988
1575280167.226,937.012,-970.215,-970.215,-970.215,-354.980
1575280167.230,-559.082,-970.215,-970.215,-970.215,165.527
1575280167.234,-1000.000,-970.215,-970.215,-970.215,-26.367
1575280167.238,-1000.000,-970.215,-970.215,-970.215,-533.691
1575280167.242,-209.961,-970.215,-970.215,-970.215,-798.340
1575280167.246,-880.859,-970.215,-970.215,-970.215,-481.934
1575280167.249,-249.023,-970.215,-970.215,-970.215,78.613
1575280167.253,-1000.000,-970.215,-970.215,-970.215,207.520
1575280167.257,-1000.000,-970.215,-970.215,-970.215,-255.859
1575280167.261,-254.883,-970.215,-970.215,-970.215,-691.406
1575280167.265,-791.016,-970.215,-970.215,-970.215,-460.449
1575280167.269,201.660,-970.215,-970.215,-970.703,232.422
1575280167.273,-1000.000,-970.215,-970.215,-970.215,407.715
1575280167.277,-1000.000,-970.215,-970.215,-970.215,-93.262
1575280167.281,-233.398,-970.215,-970.215,-970.215,-280.762
1575280167.285,-797.363,-970.215,-970.215,-970.215,29.297
1575280167.289,351.562,-970.215,-970.215,-970.703,314.941
1575280167.292,-950.195,-970.215,-970.215,-972.168,357.910
1575280167.296,-1000.000,-970.215,-970.215,-934.570,-4.395
1575280167.300,-221.191,-970.215,-970.215,-1000.000,-388.672
1575280167.304,-834.473,-970.215,-970.215,-461.914,-352.539
1575280167.308,634.766,-970.215,-970.215,-306.152,171.875
1575280167.312,-765.137,-970.215,-970.215,-1000.000,318.848
1575280167.316,-1000.000,-970.215,-970.215,-903.809,-115.234
1575280167.320,-165.039,-970.215,-970.215,-1000.000,-503.906
1575280167.324,-941.406,-970.215,-970.215,-48.340,-443.848
1575280167.328,995.117,-970.215,-970.215,319.824,143.555
1575280167.332,-261.230,-970.215,-970.215,-1000.000,444.336
1575280167.335,-1000.000,-970.215,-970.215,-909.180,141.113
1575280167.339,-154.785,-970.215,-970.215,-1000.000,-327.148
1575280167.343,-979.004,-970.215,-970.215,-77.148,-371.582
1575280167.347,-911.621,-970.215,-970.215,665.039,186.523
1575280167.351,24.414,-970.215,-970.215,-856.934,476.562
1575280167.355,-1000.000,-970.215,-970.215,-981.445,264.648
1575280167.359,-301.758,-970.215,-970.215,-1000.000,-174.805
1575280167.363,959.961,-970.215,-970.215,-209.473,-395.020
1575280167.367,-869.141,-970.215,-970.703,-879.395,175.293
1575280167.371,235.840,-970.215,-970.215,-209.473,656.738
1575280167.374,-1000.000,-970.215,-970.215,-1000.000,290.527
1575280167.378,-501.953,-970.703,-970.703,-1000.000,-166.992
1575280167.382,882.324,-970.215,-970.215,-238.770,-233.887
1575280167.386,-838.379,-970.215,-970.215,-793.457,149.414
1575280167.390,224.609,-970.215,-970.215,155.762,596.191
1575280167.394,-1000.000,-973.145,-977.051,-1000.000,528.320
1575280167.398,-751.953,-955.566,-942.383,-1000.000,45.410
1575280167.402,621.094,-931.152,-956.055,-220.215,-196.777
1575280167.406,-779.785,-1000.000,-1000.000,-793.457,289.062
1575280167.410,179.199,50.293,226.562,276.855,820.312
1575280167.414,-1000.000,-878.418,-864.258,-981.445,627.930
1575280167.417,-1000.000,952.148,937.012,-1000.000,225.098
1575280167.421,166.992,989.746,-1000.000,-183.105,-19.531
1575280167.425,-732.910,-999.023,999.512,-824.707,210.938
1575280167.429,225.586,999.512,999.512,604.492,779.785
1575280167.433,-968.750,999.512,999.512,-759.277,770.508
1575280167.437,-1000.000,999.512,999.512,-1000.000,56.641
1575280167.441,-108.398,999.512,999.512,-139.648,-172.363
1575280167.445,-774.902,999.512,999.512,-921.875,565.918
1575280167.449,446.289,999.512,999.512,952.148,819.824
1575280167.453,-886.719,999.512,999.512,-299.316,8.301
1575280167.456,-1000.000,999.512,999.512,-1000.000,-451.172
1575280167.460,-215.820,999.512,999.512,-165.039,-297.363
1575280167.464,-821.289,999.512,999.512,-909.180,120.605
1575280167.468,554.199,999.512,999.512,922.363,238.281
1575280167.472,-841.309,999.512,999.512,-351.562,-98.633
1575280167.476,-1000.000,999.512,999.512,-1000.000,-419.922
1575280167.480,-185.547,999.512,999.512,-291.504,-307.617
1575280167.484,-899.414,999.512,999.512,996.094,108.398
1575280167.488,862.793,999.512,999.512,-948.242,276.855
1575280167.492,-472.168,999.512,999.512,-161.133,-39.551
1575280167.496,-1000.000,999.512,999.512,-1000.000,-396.484
1575280167.499,-193.848,999.512,999.512,-280.762,-344.727
1575280167.503,999.023,999.512,999.512,949.707,83.984
1575280167.507,-901.855,999.512,999.512,-857.910,348.145
1575280167.511,31.250,999.512,999.512,234.375,94.727
1575280167.515,-1000.000,999.512,999.512,-1000.000,-344.238
1575280167.519,-282.715,999.512,999.512,-236.328,-378.418
1575280167.523,967.285,999.512,999.512,-997.070,44.922
1575280167.527,-871.094,999.512,999.512,-881.348,337.891
1575280167.531,254.883,999.512,999.512,355.957,181.641
1575280167.535,-1000.000,999.512,999.512,-1000.000,-275.391
1575280167.539,-483.887,999.512,999.512,-326.660,-416.992
1575280167.542,896.973,999.512,999.512,974.609,-8.301
1575280167.546,-843.262,999.512,999.512,-895.996,336.426
1575280167.550,225.586,999.512,999.512,587.891,203.613
1575280167.554,-1000.000,999.512,999.512,-973.633,-205.566
1575280167.558,-755.371,999.512,999.512,-571.289,-413.086
1575280167.562,608.887,999.512,999.512,881.348,-116.699
1575280167.566,-779.297,999.512,999.512,-906.738,286.621
1575280167.570,243.164,999.512,999.512,775.879,278.320
1575280167.574,-1000.000,999.512,999.512,-691.895,-181.152
1575280167.578,-983.398,999.512,999.512,-858.398,-471.680
1575280167.581,250.000,999.512,999.512,643.555,-161.621
1575280167.585,-743.652,999.512,999.512,-890.137,298.340
1575280167.589,408.691,999.512,999.512,876.953,342.285
1575280167.593,-897.949,999.512,999.512,-407.227,-108.398
1575280167.597,-1000.000,999.512,999.512,-1000.000,-457.031
1575280167.601,8.301,999.512,999.512,205.566,-209.473
1575280167.605,-785.156,999.512,999.512,-888.184,246.582
1575280167.609,594.727,999.512,999.512,984.863,307.129
1575280167.613,-761.230,999.512,999.512,-178.223,-49.805
1575280167.617,-1000.000,999.512,999.512,-1000.000,-416.992
1575280167.621,-175.781,999.512,999.512,-41.016,-241.211
1575280167.624,-896.484,999.512,999.512,-939.941,183.594
1575280167.628,859.375,999.512,999.512,-934.082,330.078
1575280167.632,-481.934,999.512,999.512,-9.766,48.828
1575280167.636,-1000.000,999.512,999.512,-1000.000,-363.281
1575280167.640,-151.855,999.512,999.512,-147.949,-261.230
1575280167.644,-952.148,999.512,999.512,-971.680,163.574
1575280167.648,-965.332,999.512,999.512,-902.344,318.359
1575280167.652,-174.805,999.512,999.512,134.766,55.176
1575280167.656,-1000.000,999.512,999.512,-1000.000,-346.191
1575280167.660,-234.375,999.512,999.512,-333.496,-317.383
1575280167.663,-988.281,999.512,999.512,979.004,110.840
1575280167.667,-926.758,999.512,999.512,-889.648,328.613
1575280167.671,-72.266,999.512,999.512,38.574,113.281
1575280167.675,-1000.000,999.512,999.512,-1000.000,-291.016
1575280167.679,-528.320,999.512,999.512,-761.719,-327.637
1575280167.683,842.285,999.512,999.512,579.102,38.574
1575280167.687,-843.262,999.512,999.512,-786.133,296.875
1575280167.691,-22.949,999.512,999.512,-4.395,146.484
1575280167.695,-1000.000,999.512,999.512,-1000.000,-278.809
1575280167.699,-910.156,999.512,999.512,-1000.000,-383.301
1575280167.703,345.215,999.512,999.512,-3.418,-7.324
1575280167.706,-747.070,999.512,999.512,-796.875,302.246
1575280167.710,68.848,999.512,999.512,-108.887,184.082
1575280167.714,-1000.000,999.512,999.512,-1000.000,-187.500
1575280167.718,-1000.000,999.512,999.512,-1000.000,-378.906
1575280167.722,20.996,999.512,999.512,-221.680,-95.215
1575280167.726,-742.676,999.512,999.512,-824.219,285.645
1575280167.730,172.852,999.512,999.512,-27.344,225.586
1575280167.734,-992.188,999.512,999.512,-1000.000,-160.156
1575280167.738,-1000.000,999.512,999.512,-1000.000,-377.441
1575280167.742,-167.969,999.512,999.512,-410.645,-138.184
1575280167.746,-782.715,999.512,999.512,-865.234,255.371
1575280167.749,193.848,999.512,999.512,195.312,242.676
1575280167.753,-1000.000,999.512,999.512,-1000.000,-111.328
1575280167.757,-1000.000,999.512,999.512,-1000.000,-328.613
1575280167.761,-225.098,999.512,999.512,-410.645,-144.043
1575280167.765,-795.898,999.512,999.512,-868.652,224.121
1575280167.769,375.488,999.512,999.512,305.664,294.922
1575280167.773,-938.965,999.512,999.512,-979.492,-11.719
1575280167.777,-1000.000,999.512,999.512,-1000.000,-283.203
1575280167.781,-217.773,999.512,999.512,-589.844,-163.086
1575280167.785,-840.332,999.512,999.512,996.582,193.359
1575280167.788,658.203,999.512,999.512,568.848,294.434
1575280167.792,-739.746,999.512,999.512,-908.691,-5.371
1575280167.796,-1000.000,999.512,999.512,-998.535,-293.945
1575280167.800,-174.805,999.512,999.512,-964.844,-211.914
1575280167.804,-913.574,999.512,999.512,493.652,131.348
1575280167.808,905.273,999.512,999.512,619.629,255.371
1575280167.812,-395.020,999.512,999.512,-981.934,-7.324
1575280167.816,-1000.000,999.512,999.512,-926.758,-288.574
1575280167.820,-301.270,999.512,999.512,-1000.000,-254.395
1575280167.824,980.469,999.512,998.535,-62.500,20.508
1575280167.828,-922.363,999.512,993.652,496.094,176.758
1575280167.831,-107.910,999.512,-981.445,-974.121,-0.488
1575280167.835,-1000.000,999.512,727.051,-940.430,-285.156
1575280167.839,-482.422,999.512,711.914,-1000.000,-336.914
1575280167.843,861.328,999.512,-229.492,-164.551,-104.980
1575280167.847,-836.914,999.512,-1000.000,918.945,193.359
1575280167.851,79.102,-999.512,308.105,-563.477,243.652
1575280167.855,-1000.000,993.164,-933.105,-1000.000,-19.043
1575280167.859,-901.855,934.082,-927.246,-1000.000,-319.824
1575280167.863,369.629,-804.199,235.352,-455.566,-479.492
1575280167.867,-743.652,0.488,-991.699,773.438,-97.656
1575280167.871,138.672,-630.859,-1000.000,-483.398,311.035
1575280167.874,-988.281,900.879,126.953,-1000.000,37.598
1575280167.878,-1000.000,-994.629,994.629,-921.387,-305.176
1575280167.882,-92.773,-920.410,-551.270,-983.398,-519.043
1575280167.886,-764.160,218.262,-1000.000,-195.312,-269.043
1575280167.890,183.105,-1000.000,-906.738,-554.688,240.723
1575280167.894,-995.605,-952.148,-978.027,-1000.000,101.074
1575280167.898,-1000.000,-944.336,-899.902,-921.387,-193.848
1575280167.902,-225.098,-977.051,-951.660,-979.004,-370.117
1575280167.906,-797.363,-970.215,-915.527,-970.215,-279.785
1575280167.910,190.430,-970.215,-1000.000,-970.215,199.707
1575280167.913,-994.629,-970.215,-311.035,-970.703,205.566
1575280167.917,-1000.000,-970.215,-818.359,-970.703,-122.559
1575280167.921,-468.262,-970.215,520.020,-970.215,-298.340
1575280167.925,-897.461,-974.609,-875.000,-970.215,-333.496
1575280167.929,230.957,-949.219,-1000.000,-970.703,42.969
1575280167.933,-1000.000,-1000.000,-158.691,-970.215,208.496
1575280167.937,-1000.000,-847.656,-794.922,-970.215,-152.832
1575280167.941,-836.426,-649.414,196.289,-970.215,-356.934
1575280167.945,747.070,-949.219,-1000.000,-970.215,-364.746
1575280167.949,314.941,-992.188,-948.242,-970.215,5.371
1575280167.953,-1000.000,-954.102,-943.359,-970.703,179.199
1575280167.956,-909.180,-973.633,-977.051,-970.215,-125.000
1575280167.960,-1000.000,-970.215,-970.215,-970.215,-364.746
1575280167.964,288.574,-970.215,-970.215,-970.215,-438.477
1575280167.968,473.145,-970.215,-970.703,-970.215,-35.156
1575280167.972,-1000.000,-970.215,-970.703,-970.215,311.523
1575280167.976,-917.480,-970.703,-970.215,-970.215,105.957
1575280167.980,-1000.000,-970.215,-970.215,-970.215,-192.383
1575280167.984,107.910,-970.215,-970.703,-970.215,-461.914
1575280167.988,713.379,-970.703,-970.703,-970.215,-141.113
1575280167.992,-885.742,-970.703,-970.215,-978.516,461.426
1575280167.995,-977.051,-970.215,-970.215,-921.387,463.867
1575280167.999,-1000.000,-973.633,-970.703,-1000.000,226.074
1575280168.003,-118.164,-956.055,-971.191,-817.383,-154.297
1575280168.007,-844.238,-932.129,-907.715,-11.719,2.930
1575280168.011,-230.469,-1000.000,-1000.000,-675.781,592.773
1575280168.015,-1000.000,40.039,-189.941,-1000.000,386.719
1575280168.019,-1000.000,-885.742,-929.688,-1000.000,-4.395
1575280168.023,-235.352,955.078,982.910,-604.980,-271.484
1575280168.027,-791.016,988.281,972.168,990.234,-155.273
1575280168.031,154.297,-998.047,-994.141,105.957,397.949
1575280168.035,-1000.000,999.512,999.512,-1000.000,410.645
1575280168.038,-1000.000,999.512,999.512,-1000.000,8.301
1575280168.042,-228.516,999.512,999.512,-404.785,-295.410
1575280168.046,-796.387,999.512,999.512,-861.816,-340.332
1575280168.050,201.660,999.512,999.512,242.676,-125.488
1575280168.054,-1000.000,999.512,999.512,-1000.000,-23.438
1575280168.058,-1000.000,999.512,999.512,-1000.000,-166.992
1575280168.062,-178.711,999.512,999.512,-230.957,-10.254
1575280168.066,-973.633,999.512,999.512,971.680,343.262
1575280168.070,-903.320,999.512,999.512,-907.715,373.047
1575280168.074,-21.484,999.512,999.512,652.344,62.500
1575280168.078,-1000.000,999.512,999.512,-853.027,-127.441
1575280168.081,11.230,999.512,999.512,-145.020,-33.691
1575280168.085,-958.984,999.512,999.512,-854.492,278.320
1575280168.089,-876.465,999.512,999.512,958.984,430.664
1575280168.093,313.965,999.512,999.512,979.492,146.484
1575280168.097,-1000.000,999.512,999.512,-996.094,-130.371
1575280168.101,174.316,999.512,999.512,999.512,-23.926
1575280168.105,-907.227,999.512,999.512,999.512,341.309
1575280168.109,-929.199,999.512,999.512,999.512,511.719
1575280168.113,483.887,999.512,999.512,999.512,223.633
1575280168.117,-1000.000,999.512,999.512,999.512,-106.445
1575280168.120,-144.043,999.512,999.512,999.512,-52.246
1575280168.124,-942.871,999.512,999.512,999.023,323.242
1575280168.128,-900.391,999.512,999.512,987.793,533.691
1575280168.132,430.664,999.512,999.512,-956.543,298.340
1575280168.136,-1000.000,999.512,999.512,784.668,-121.582
1575280168.140,-196.777,999.512,999.512,767.090,-166.016
1575280168.144,-957.031,999.512,999.512,-961.914,306.641
1575280168.148,-899.902,999.512,999.512,931.641,573.730
1575280168.152,371.094,999.512,999.512,-808.594,339.355
1575280168.156,-1000.000,999.512,999.512,88.379,-112.305
1575280168.160,-394.531,999.512,999.512,-208.008,-204.590
1575280168.163,952.637,999.512,999.512,-907.715,209.961
1575280168.167,-866.211,999.512,999.512,944.824,482.910
1575280168.171,362.793,999.512,999.512,-833.984,343.262
1575280168.175,-1000.000,999.512,999.512,13.184,-66.406
1575280168.179,-708.496,999.512,999.512,-338.867,-253.906
1575280168.183,685.547,999.512,999.512,-931.152,89.844
1575280168.187,-798.828,999.512,999.512,946.777,519.043
1575280168.191,412.598,999.512,999.512,-835.938,512.695
1575280168.195,-921.387,999.512,999.512,25.879,-41.016
1575280168.199,-1000.000,999.512,999.512,-613.770,-327.637
1575280168.202,204.590,-999.512,999.512,926.758,43.457
1575280168.206,-766.602,993.164,999.512,990.234,481.445
1575280168.210,560.059,-997.559,999.512,-859.375,560.059
1575280168.214,-806.641,-999.023,999.512,140.625,125.000
1575280168.218,-1000.000,751.953,999.512,-793.945,-310.059
1575280168.222,55.664,774.414,999.512,717.285,-127.441
1575280168.226,-825.195,384.766,999.512,-955.566,-107.910
1575280168.230,755.859,-656.738,-991.211,-914.551,33.691
1575280168.234,-567.383,-639.648,936.035,250.977,530.273
1575280168.238,-1000.000,-562.500,-896.484,-1000.000,59.082
1575280168.242,-157.227,-979.492,546.875,88.379,-795.410
1575280168.245,-913.086,-978.516,-817.871,-896.484,-930.664
1575280168.249,925.293,-958.496,-1000.000,-943.359,-208.008
1575280168.253,-381.348,-973.145,-921.387,68.848,535.645
1575280168.257,-1000.000,-970.215,-981.445,-1000.000,246.094
1575280168.261,-143.066,-970.215,-970.215,-167.969,-617.676
1575280168.265,-967.285,-970.703,-970.215,-968.262,-872.559
1575280168.269,-924.805,-970.703,-970.215,-905.762,-260.742
1575280168.273,-62.988,-970.215,-970.215,104.004,618.652
1575280168.277,-1000.000,-970.215,-970.215,-1000.000,570.312
1575280168.281,-172.363,-970.215,-970.215,-325.684,-410.156
1575280168.285,-997.559,-970.215,-970.215,955.078,-891.113
1575280168.288,-881.836,-970.215,-970.215,-863.770,-257.812
1575280168.292,224.121,-970.215,-970.215,236.816,732.422
1575280168.296,-1000.000,-970.215,-970.215,-1000.000,767.090
1575280168.300,-274.414,-970.215,-970.215,-414.551,-240.234
1575280168.304,994.141,-970.215,-970.215,922.852,-870.117
1575280168.308,-879.395,-970.215,-970.703,-853.516,-254.883
1575280168.312,257.324,-970.215,-970.703,264.648,697.754
1575280168.316,-1000.000,-970.215,-970.703,-1000.000,824.707
1575280168.320,-433.594,-970.215,-970.215,-576.660,-97.656
1575280168.324,923.340,-970.215,-970.703,773.438,-764.160
1575280168.327,-854.004,-970.215,-970.215,-828.613,-384.277
1575280168.331,264.648,-970.703,-970.215,456.543,503.906
1575280168.335,-1000.000,-970.215,-970.215,-1000.000,971.680
1575280168.339,-638.672,-970.215,-970.215,-692.383,208.984
1575280168.343,741.699,-974.609,-970.215,731.934,-717.773
1575280168.347,-812.012,-948.730,-970.703,-913.574,-363.770
1575280168.351,440.430,-985.352,-970.215,908.203,676.270
1575280168.355,-963.867,-917.969,-970.215,-560.059,-920.898
1575280168.359,-900.879,-144.531,-970.215,-723.145,396.973
1575280168.363,458.984,4.883,-971.191,882.812,-515.137
1575280168.367,-799.316,-294.434,-972.168,985.840,-221.191
1575280168.370,625.000,550.781,-913.086,-857.422,666.016
1575280168.374,-748.047,-936.523,-1000.000,16.602,-911.621
1575280168.378,-1000.000,967.773,-314.453,-605.469,650.391
1575280168.382,177.246,996.582,956.543,942.871,-308.105
1575280168.386,-846.680,-999.023,-990.234,983.887,-325.684
1575280168.390,862.793,999.512,963.867,-849.121,578.613
1575280168.394,-407.715,999.512,-992.676,142.090,-904.297
1575280168.398,-1000.000,999.512,999.512,-671.387,666.992
1575280168.402,-60.059,999.512,999.512,851.074,-288.086
1575280168.406,-930.176,999.512,999.512,-989.746,-545.898
1575280168.410,-966.309,999.512,999.512,-884.277,214.844
1575280168.413,-160.156,999.512,999.512,312.988,-969.727
1575280168.417,-1000.000,999.512,999.512,-946.777,704.102
1575280168.421,-139.648,999.512,999.512,436.035,-382.812
1575280168.425,-972.656,999.512,999.512,-913.574,-652.832
1575280168.429,-911.621,999.512,999.512,-937.500,519.043
1575280168.433,45.898,999.512,999.512,383.789,664.551
1575280168.437,-1000.000,999.512,999.512,-1000.000,-663.574
1575280168.441,-329.102,999.512,999.512,-184.570,-626.953
1575280168.445,958.008,999.512,999.512,-961.426,70.312
1575280168.449,-871.582,999.512,999.512,-896.484,506.348
1575280168.452,159.668,999.512,999.512,337.402,354.492
1575280168.456,-1000.000,999.512,999.512,-1000.000,-450.195
1575280168.460,-607.422,999.512,999.512,-355.957,-838.379
1575280168.464,771.973,999.512,999.512,961.914,-207.031
1575280168.468,-810.547,999.512,999.512,-872.070,563.965
1575280168.472,207.031,999.512,999.512,382.812,626.465
1575280168.476,-1000.000,999.512,999.512,-1000.000,-189.941
1575280168.480,-857.910,999.512,999.512,-671.875,-852.051
1575280168.484,472.656,999.512,999.512,720.703,-377.930
1575280168.488,-760.254,999.512,999.512,-814.941,428.711
1575280168.492,177.734,999.512,999.512,476.074,773.926
1575280168.495,-1000.000,999.512,999.512,-905.762,103.516
1575280168.499,-1000.000,999.512,999.512,-999.023,-887.207
1575280168.503,158.691,999.512,-999.512,302.246,-540.527
1575280168.507,-734.375,999.512,997.070,-783.203,474.121
1575280168.511,327.148,999.512,975.586,597.168,647.949
1575280168.515,-944.824,999.512,-954.102,-775.879,-118.652
1575280168.519,-1000.000,999.512,589.844,-1000.000,-717.773
1575280168.523,15.625,999.512,14.648,136.719,-235.352
1575280168.527,-770.020,999.512,-404.785,-827.148,446.289
1575280168.531,548.340,999.512,-1000.000,774.902,540.527
1575280168.534,-822.266,999.512,-129.395,-553.223,-106.445
1575280168.538,-1000.000,999.512,-905.273,-1000.000,-662.598
1575280168.542,-64.941,999.512,972.656,31.250,-234.863
1575280168.546,-879.395,998.535,976.074,-931.641,372.559
1575280168.550,878.418,-1000.000,-995.117,-947.266,467.285
1575280168.554,-422.852,999.512,999.512,-70.801,-49.805
1575280168.558,-1000.000,984.375,999.512,-1000.000,-631.836
1575280168.562,-142.578,996.094,999.512,-18.066,-306.641
1575280168.566,-969.238,986.816,999.512,-959.473,374.512
1575280168.570,-921.875,-998.047,999.512,-895.020,554.688
1575280168.574,-60.547,-984.375,999.512,238.770,77.637
1575280168.577,-1000.000,368.164,999.512,-1000.000,-588.867
1575280168.581,-144.531,459.961,999.512,-131.348,-393.066
1575280168.585,-971.680,-990.234,999.512,-957.031,310.547
1575280168.589,-900.391,-923.340,999.512,-892.090,552.246
1575280168.593,86.426,553.223,999.512,258.789,140.625
1575280168.597,-1000.000,-730.957,999.512,-1000.000,-589.844
1575280168.601,-226.074,-1000.000,999.512,-199.707,-520.020
1575280168.605,-999.512,-480.469,999.512,-974.121,215.332
1575280168.609,-888.184,-230.469,999.512,-895.996,545.898
1575280168.613,215.332,-876.465,999.512,260.254,229.980
1575280168.617,-1000.000,-1000.000,999.512,-1000.000,-502.930
1575280168.620,-534.180,-943.848,999.512,-583.496,-583.984
1575280168.624,857.422,-974.609,999.512,808.594,81.055
1575280168.628,-828.125,-970.215,999.512,-817.383,478.027
1575280168.632,210.449,-970.215,999.512,198.242,266.602
1575280168.636,-1000.000,-970.215,999.512,-1000.000,-481.445
1575280168.640,-862.305,-964.844,999.512,-942.383,-690.430
1575280168.644,465.820,-989.258,999.512,321.777,-36.621
1575280168.648,-759.277,-882.324,999.512,-743.652,421.387
1575280168.652,176.758,-861.816,999.512,213.867,330.078
1575280168.656,-1000.000,-963.379,999.512,-985.840,-355.957
1575280168.659,-1000.000,-1000.000,999.512,-1000.000,-693.848
1575280168.663,151.855,-869.141,999.512,35.156,-92.285
1575280168.667,-732.422,-501.953,999.512,-749.512,437.012
1575280168.671,269.531,-754.883,999.512,375.977,368.164
1575280168.675,-964.844,-1000.000,999.512,-910.645,-281.250
1575280168.679,-1000.000,-953.125,-997.070,-1000.000,-691.895
1575280168.683,-25.391,-970.215,986.816,-158.203,-220.215
1575280168.687,-763.672,-970.703,961.914,-810.547,348.145
1575280168.691,471.680,-970.215,-915.527,562.500,414.551
1575280168.695,-863.770,-970.215,76.172,-811.523,-180.664
1575280168.699,-1000.000,-970.215,-1000.000,-1000.000,-688.477
1575280168.702,-182.617,-970.215,191.895,-189.453,-286.133
1575280168.706,-863.281,-970.215,-912.109,-885.742,338.379
1575280168.710,755.371,-970.215,984.863,813.965,486.816
1575280168.714,-621.094,-970.215,922.363,-536.133,10.254
1575280168.718,-1000.000,-970.215,726.562,-1000.000,-566.895
1575280168.722,-160.645,-970.215,932.129,-193.848,-307.129
1575280168.726,-938.965,-970.703,-971.680,-958.008,292.969
1575280168.730,993.652,-970.215,983.887,-988.770,483.398
1575280168.734,-266.602,-970.215,-997.559,-211.914,56.641
1575280168.738,-1000.000,-970.703,999.512,-1000.000,-576.172
1575280168.742,-140.137,-970.215,999.512,-295.410,-374.512
1575280168.745,-971.191,-970.215,999.512,966.309,222.168
1575280168.749,-914.551,-970.215,999.512,-892.578,487.793
1575280168.753,1.465,-970.215,999.512,30.273,172.852
1575280168.757,-1000.000,-970.215,999.512,-1000.000,-483.887
1575280168.761,-226.074,-970.215,999.512,-529.785,-499.023
1575280168.765,994.141,-970.215,999.512,827.637,-358.887
1575280168.769,-884.766,-970.703,999.512,-826.172,-56.641
1575280168.773,187.500,-970.703,-992.676,62.500,617.676
1575280168.777,-1000.000,-970.215,932.129,-1000.000,305.664
1575280168.781,-438.477,-970.215,-875.000,-1000.000,-716.309
1575280168.784,912.109,-970.703,415.039,226.562,-1000.000
1575280168.788,-847.168,-970.215,-934.082,745.605,-834.473
1575280168.792,220.215,-970.215,-990.723,-850.586,-154.785
1575280168.796,-1000.000,-970.215,-928.223,-1000.000,104.980
1575280168.800,-842.285,-970.215,-981.445,-911.133,-679.199
1575280168.804,496.582,-970.703,-970.215,-984.863,-1000.000
1575280168.808,-761.230,-970.215,-970.215,-970.215,-814.941
1575280168.812,173.340,-970.215,-970.215,-970.215,-82.520
1575280168.816,-1000.000,-970.215,-970.215,-970.215,465.332
1575280168.820,-1000.000,-970.215,-970.215,-970.703,-311.035
1575280168.824,110.352,-970.215,-970.215,-970.215,-1000.000
1575280168.827,-737.793,-970.215,-970.215,-970.215,-670.410
1575280168.831,174.805,-970.215,-970.215,-970.215,290.527
1575280168.835,-1000.000,-970.215,-970.215,-970.215,917.969
1575280168.839,-1000.000,-970.215,-970.215,-970.215,195.312
1575280168.843,-20.996,-970.703,-970.215,-970.215,-731.934
1575280168.847,-756.348,-970.215,-970.215,-970.215,-318.359
1575280168.851,430.664,-970.215,-970.215,-974.121,625.488
1575280168.855,-896.973,-970.215,-970.215,-950.684,-926.758
1575280168.859,-1000.000,-970.215,-970.215,-960.938,394.043
1575280168.863,-83.008,-970.215,-970.215,-1000.000,-525.879
1575280168.866,-836.914,-970.215,-970.215,54.688,-372.070
1575280168.870,742.676,-970.215,-970.215,-68.848,458.008
1575280168.874,-610.840,-970.215,-970.215,-1000.000,-952.148
1575280168.878,-1000.000,-970.215,-970.215,-948.730,430.176
1575280168.882,-157.715,-970.215,-970.215,-996.094,-462.891
1575280168.886,-945.801,-970.215,-970.215,486.816,-406.250
1575280168.890,-986.328,-970.215,-970.215,317.383,201.660
1575280168.894,-229.004,-970.215,-970.215,-1000.000,873.535
1575280168.898,-1000.000,-970.215,-970.215,-907.227,487.793
1575280168.902,-141.113,-970.215,-970.215,-1000.000,-513.672
1575280168.906,-969.727,-970.703,-970.215,187.012,-562.500
1575280168.909,-917.480,-970.703,-970.215,449.219,176.758
1575280168.913,1.953,-970.215,-970.215,-1000.000,791.992
1575280168.917,-1000.000,-970.215,-970.215,-920.410,490.723
1575280168.921,-277.344,-970.215,-970.215,-1000.000,-471.191
1575280168.925,973.145,-970.215,-970.703,-2.930,-658.203
1575280168.929,-876.953,-970.215,-970.215,483.398,-27.344
1575280168.933,187.500,-970.215,-970.703,-992.188,617.676
1575280168.937,-1000.000,-970.215,-975.586,-931.152,486.328
1575280168.941,-487.305,-973.145,-936.523,-1000.000,-308.105
1575280168.945,883.301,-955.566,-992.676,-137.207,-592.773
1575280168.949,-839.355,-931.641,-824.219,674.316,-1.465
1575280168.952,229.492,-1000.000,359.863,-800.781,706.055
1575280168.956,-1000.000,53.223,-928.711,-990.234,625.488
1575280168.960,-699.219,-877.930,959.473,-1000.000,-88.379
1575280168.964,683.105,951.660,994.629,-254.883,-419.434
1575280168.968,-795.410,989.746,-998.535,-863.281,32.715
1575280168.972,239.746,-999.023,999.512,-95.703,687.988
1575280168.976,-1000.000,999.512,999.512,-1000.000,737.305
1575280168.980,-860.352,999.512,999.512,-1000.000,-29.297
1575280168.984,447.266,999.512,999.512,-236.816,-549.316
1575280168.988,-774.414,999.512,999.512,-797.363,-262.207
1575280168.991,517.090,999.512,999.512,136.719,241.211
1575280168.995,-858.398,-999.023,999.512,-1000.000,400.879
1575280168.999,-1000.000,922.852,999.512,-1000.000,-195.801
1575280169.003,216.797,-788.086,999.512,-369.141,-882.324
1575280169.007,-842.285,105.469,-994.141,-864.258,-550.781
1575280169.011,858.887,-512.695,963.867,168.945,181.152
1575280169.015,-427.246,893.066,-978.516,-1000.000,349.121
1575280169.019,-1000.000,-833.008,874.512,-1000.000,-147.461
1575280169.023,64.453,591.309,-336.914,-516.602,-658.691
1575280169.027,-928.223,-724.121,-1000.000,-952.637,-407.227
1575280169.031,-937.500,-1000.000,-926.270,478.516,217.285
1575280169.034,-15.137,-157.715,-967.285,-891.113,535.156
1575280169.038,-1000.000,-958.984,-972.656,-1000.000,82.031
1575280169.042,-66.406,-971.680,-970.703,-538.574,-534.668
1575280169.046,-965.332,-152.832,-970.703,871.582,-481.445
1575280169.050,-892.090,-1000.000,-970.215,-986.816,40.527
1575280169.054,232.910,-602.051,-970.215,-292.969,453.613
1575280169.058,-1000.000,888.184,-970.215,-1000.000,181.152
1575280169.062,-168.945,916.504,-970.703,-649.414,-457.031
1575280169.066,-967.285,-519.043,-970.703,660.156,-478.027
1575280169.070,-885.254,-1000.000,-970.215,-801.758,99.609
1575280169.073,254.395,-328.125,-970.215,138.672,583.496
1575280169.077,-1000.000,893.066,-970.215,-1000.000,380.371
1575280169.081,-170.898,-815.918,-970.703,-781.250,-261.230
1575280169.085,-966.797,538.574,-975.586,543.457,-393.555
1575280169.089,-895.020,-172.852,-912.598,-773.438,116.211
1575280169.093,295.898,887.207,-1000.000,214.355,652.832
1575280169.097,-1000.000,-910.645,-453.613,-1000.000,574.707
1575280169.101,-370.117,937.500,853.027,-972.656,-130.859
1575280169.105,952.148,-987.305,-967.285,250.977,-359.375
1575280169.109,-867.188,999.512,957.031,-744.629,13.672
1575280169.113,385.742,999.512,-992.676,259.766,430.176
1575280169.116,-1000.000,999.512,999.512,-952.637,551.758
1575280169.120,-683.594,999.512,999.512,-1000.000,-90.332
1575280169.124,725.586,999.512,999.512,-95.215,-588.867
1575280169.128,-803.223,999.512,999.512,-773.438,-226.074
1575280169.132,396.484,999.512,999.512,276.855,314.453
1575280169.136,-921.387,999.512,-998.535,-958.008,466.309
1575280169.140,-1000.000,999.512,964.844,-1000.000,-78.613
1575280169.144,170.898,999.512,-958.984,-250.488,-708.496
1575280169.148,-745.605,999.512,685.059,-814.453,-405.762
1575280169.152,437.012,999.512,-421.387,176.270,281.738
1575280169.156,-870.605,999.512,-985.352,-1000.000,422.852
1575280169.159,-1000.000,999.512,-948.242,-1000.000,-134.766
1575280169.163,-115.234,999.512,-967.285,-566.406,-673.828
1575280169.167,-806.641,999.512,-910.156,993.164,-556.152
1575280169.171,594.238,999.512,-1000.000,125.977,132.324
1575280169.175,-784.180,999.512,-334.473,-1000.000,792.480
1575280169.179,-1000.000,999.512,978.027,-996.582,446.289
1575280169.183,-178.223,999.512,-988.770,-775.391,-413.086
1575280169.187,-910.645,999.512,961.426,821.289,-488.281
1575280169.191,900.879,999.512,-991.211,359.863,222.168
1575280169.195,-421.875,999.512,999.512,-1000.000,914.551
1575280169.198,-1000.000,999.512,999.512,-1000.000,649.902
1575280169.202,-144.043,999.512,999.512,-670.898,-385.742
1575280169.206,-966.797,999.512,999.512,875.000,-744.141
1575280169.210,-928.223,999.512,999.512,688.965,-142.578
1575280169.214,-74.219,999.512,999.512,-765.137,613.281
1575280169.218,-1000.000,999.512,999.512,-1000.000,506.348
1575280169.222,-183.105,999.512,999.512,-806.152,-374.512
1575280169.226,-992.676,999.512,-996.582,614.258,-917.969
1575280169.230,-893.555,999.512,981.445,956.055,-564.941
1575280169.234,139.160,999.512,974.121,-540.527,318.848
1575280169.238,-1000.000,999.512,-948.730,-1000.000,404.785
1575280169.241,-380.859,999.512,-49.805,-1000.000,-460.938
1575280169.245,935.059,999.512,-1000.000,135.254,-1000.000
1575280169.249,-858.398,999.512,-933.105,-968.262,-649.414
1575280169.253,248.047,999.512,-958.008,-466.309,244.629
1575280169.257,-1000.000,999.512,-974.121,-1000.000,577.637
1575280169.261,-527.832,999.512,-970.215,-1000.000,-227.051
1575280169.265,868.652,999.512,-970.703,-66.406,-910.645
1575280169.269,-834.961,999.512,-970.215,-785.156,-681.152
1575280169.273,228.027,999.512,-970.215,24.902,307.617
1575280169.277,-1000.000,999.512,-970.215,-1000.000,891.602
1575280169.281,-682.129,999.512,-970.215,-1000.000,128.418
1575280169.284,684.570,999.512,-970.215,-56.152,-753.418
1575280169.288,-805.176,999.512,-970.215,-762.207,-474.609
1575280169.292,478.027,999.512,-970.215,336.914,536.133
1575280169.296,-958.984,999.512,-970.215,-973.633,-937.500
1575280169.300,-866.699,999.512,-970.215,-1000.000,463.867
1575280169.304,530.273,999.512,-970.703,125.000,-576.172
1575280169.308,-824.707,999.512,-970.215,-855.957,-543.945
1575280169.312,697.266,999.512,-970.215,888.672,421.387
1575280169.316,-684.570,999.512,-970.215,-451.172,-931.641
1575280169.320,-1000.000,999.512,-975.098,-1000.000,589.844
1575280169.323,264.160,999.512,-949.707,321.289,-504.395
1575280169.327,-856.934,999.512,-952.148,-931.152,-597.168
1575280169.331,903.320,999.512,-999.023,-919.434,313.965
1575280169.335,-357.422,999.512,121.094,25.391,-979.980
1575280169.339,-1000.000,999.512,-909.180,-1000.000,702.148
1575280169.343,61.523,999.512,960.938,256.348,-425.293
1575280169.347,-902.344,999.512,988.281,-915.527,-727.539
1575280169.351,-986.816,999.512,-997.070,-929.199,175.293
1575280169.355,-161.133,999.512,999.512,162.109,-987.305
1575280169.359,-1000.000,999.512,999.512,-1000.000,718.750
1575280169.363,-144.043,999.512,999.512,-93.750,-312.012
1575280169.366,-965.332,999.512,999.512,-947.754,-748.047
1575280169.370,-915.039,999.512,999.512,-901.367,-214.355
1575280169.374,-28.320,999.512,999.512,149.414,788.086
1575280169.378,-1000.000,999.512,999.512,-1000.000,846.191
1575280169.382,-142.578,999.512,999.512,-89.844,-296.387
1575280169.386,-977.539,999.512,999.512,-960.938,-923.828
1575280169.390,-892.578,999.512,999.512,-890.625,-250.977
1575280169.394,169.922,999.512,999.512,322.266,762.207
1575280169.398,-1000.000,999.512,999.512,-1000.000,909.180
1575280169.402,-267.578,999.512,999.512,-142.578,-87.891
1575280169.405,990.723,999.512,999.512,-961.426,-879.883
1575280169.409,-879.395,999.512,999.512,-896.973,-475.586
1575280169.413,257.812,999.512,999.512,470.703,622.559
1575280169.417,-1000.000,999.512,999.512,-1000.000,-966.309
1575280169.421,-479.004,999.512,999.512,-196.777,41.504
1575280169.425,899.902,999.512,999.512,-957.520,-977.539
1575280169.429,-844.238,999.512,999.512,-917.969,-612.305
1575280169.433,225.586,999.512,999.512,610.840,511.230
1575280169.437,-1000.000,999.512,999.512,-995.117,-938.965
1575280169.441,-760.742,999.512,999.512,-372.559,83.984
1575280169.445,609.863,999.512,999.512,994.141,-958.984
1575280169.448,-779.297,999.512,999.512,-884.277,-855.469
1575280169.452,183.105,999.512,999.512,454.590,127.930
1575280169.456,-1000.000,999.512,999.512,-946.289,-917.969
1575280169.460,-992.676,999.512,999.512,-959.961,237.305
1575280169.464,215.332,999.512,999.512,356.934,-951.660
1575280169.468,-736.816,999.512,999.512,-755.859,-874.023
1575280169.472,358.398,999.512,-995.117,372.070,14.160
1575280169.476,-928.223,999.512,938.965,-896.484,-964.844
1575280169.480,-1000.000,999.512,-890.625,-1000.000,426.758
1575280169.484,20.020,999.512,437.500,-109.375,-841.797
1575280169.488,-770.996,999.512,-877.930,-786.621,-993.164
1575280169.491,549.805,999.512,-996.582,448.242,-219.238
1575280169.495,-816.406,999.512,-929.199,-884.766,952.148
1575280169.499,-1000.000,999.512,-979.492,-1000.000,563.965
1575280169.503,-108.887,999.512,-970.215,-213.867,-738.281
1575280169.507,-873.047,999.512,-970.215,-823.730,-958.008
1575280169.511,834.473,999.512,-970.215,540.039,-227.539
1575280169.515,-501.465,999.512,-970.703,-828.613,860.352
1575280169.519,-1000.000,999.512,-970.703,-1000.000,652.344
1575280169.523,-145.996,999.512,-970.215,-263.672,-638.184
1575280169.527,-965.332,999.512,-970.703,-916.992,-1000.000
1575280169.530,-933.105,999.512,-970.215,837.402,-398.438
1575280169.534,-104.004,-998.047,-970.215,-512.695,713.379
1575280169.538,-1000.000,967.773,-970.215,-1000.000,754.395
1575280169.542,-138.184,-946.289,-970.215,-294.434,-520.996
1575280169.546,-978.516,755.371,-970.703,972.656,-1000.000
1575280169.550,-893.066,-79.102,-970.215,-916.504,-438.965
1575280169.554,124.023,347.656,-970.215,-71.777,659.668
1575280169.558,-1000.000,-958.984,-970.215,-1000.000,897.461
1575280169.562,-194.824,-957.520,-970.215,-398.926,-258.789
1575280169.566,-988.770,703.613,-970.215,904.785,-1000.000
1575280169.570,-888.184,49.316,-970.703,-852.539,-437.500
1575280169.573,262.695,532.227,-970.703,173.340,649.414
1575280169.577,-1000.000,-937.500,-970.215,-1000.000,977.539
1575280169.581,-438.965,977.539,-971.191,-664.551,-55.664
1575280169.585,922.852,992.676,-973.145,699.219,-853.027
1575280169.589,-853.027,-999.023,-913.574,-796.875,-525.391
1575280169.593,232.422,999.512,-1000.000,185.059,437.988
1575280169.597,-1000.000,999.512,-365.234,-1000.000,-950.195
1575280169.601,-724.609,999.512,971.191,-978.027,60.059
1575280169.605,656.738,999.512,858.398,250.000,-965.332
1575280169.609,-788.574,999.512,381.348,-741.699,-600.098
1575280169.612,191.895,999.512,729.004,167.969,421.387
1575280169.616,-1000.000,999.512,-957.031,-994.629,-916.016
1575280169.620,-938.477,999.512,983.398,-1000.000,223.633
1575280169.624,317.383,999.512,996.582,-41.016,-942.871
1575280169.628,-744.141,999.512,-999.512,-756.836,-869.141
1575280169.632,358.398,999.512,999.512,239.746,126.465
1575280169.636,-927.734,999.512,999.512,-971.680,-937.500
1575280169.640,-1000.000,999.512,999.512,-1000.000,315.918
1575280169.644,49.805,999.512,999.512,-215.332,-882.324
1575280169.648,-766.113,999.512,999.512,-799.805,-808.594
1575280169.652,540.039,999.512,999.512,416.016,114.258
1575280169.655,-817.871,999.512,999.512,-916.016,-976.562
1575280169.659,-1000.000,999.512,999.512,-1000.000,491.211
1575280169.663,-110.352,999.512,999.512,-208.008,-787.109
1575280169.667,-872.559,999.512,999.512,-860.840,-826.660
1575280169.671,833.008,999.512,999.512,732.910,47.852
1575280169.675,-504.395,999.512,999.512,-644.531,940.430
1575280169.679,-1000.000,999.512,999.512,-1000.000,584.961
1575280169.683,-149.902,999.512,999.512,-187.500,-654.297
1575280169.687,-958.008,999.512,999.512,-941.895,-940.918
1575280169.691,-946.289,999.512,999.512,968.262,-267.090
1575280169.695,-154.297,999.512,999.512,-282.227,794.434
1575280169.698,-1000.000,999.512,999.512,-1000.000,672.363
1575280169.702,-139.648,999.512,999.512,-404.785,-604.004
1575280169.706,-972.656,999.512,999.512,937.988,-1000.000
1575280169.710,-907.227,999.512,999.512,-919.434,-442.871
1575280169.714,44.922,999.512,-995.117,-156.738,670.898
1575280169.718,-1000.000,999.512,971.680,-1000.000,671.875
1575280169.722,-235.352,999.512,-999.023,-706.543,-608.887
1575280169.726,988.281,999.512,954.102,627.441,-1000.000
1575280169.730,-878.418,-1000.000,-204.102,-808.105,-645.996
1575280169.734,258.301,998.535,-1000.000,-42.480,425.293
1575280169.737,-1000.000,939.453,-930.664,-1000.000,710.449
1575280169.741,-434.082,-868.164,-962.891,-949.219,-482.422
1575280169.745,925.293,202.637,-973.145,235.840,-1000.000
1575280169.749,-854.492,-1000.000,-970.215,-742.188,-665.039
1575280169.753,245.117,-953.125,-970.215,150.879,334.473
1575280169.757,-1000.000,-943.848,-970.215,-1000.000,827.637
1575280169.761,-533.203,-977.051,-970.215,-1000.000,-301.270
1575280169.765,857.910,-970.215,-970.215,91.309,-1000.000
1575280169.769,-830.566,-970.215,-970.215,-743.164,-789.551
1575280169.773,300.293,-970.215,-970.215,177.246,222.656
1575280169.777,-1000.000,-970.215,-970.215,-1000.000,-991.699
1575280169.780,-770.020,-970.215,-970.215,-1000.000,56.152
1575280169.784,591.797,-970.215,-970.215,-33.203,-988.770
1575280169.788,-791.504,-970.215,-970.215,-758.789,-531.738
1575280169.792,487.793,-970.703,-970.215,356.934,539.062
1575280169.796,-913.574,-970.215,-970.215,-943.359,-889.648
1575280169.800,-979.492,-970.703,-970.215,-1000.000,364.258
1575280169.804,364.746,-971.191,-970.215,-18.066,-739.746
1575280169.808,-812.988,-907.715,-972.168,-822.266,-423.340
1575280169.812,721.680,-1000.000,-958.008,734.375,544.434
1575280169.816,-627.441,-189.941,-981.934,-625.000,-899.902
1575280169.820,-1000.000,-929.688,-856.934,-1000.000,397.949
1575280169.823,134.766,982.910,-449.219,-24.902,-666.016
1575280169.827,-862.793,972.168,171.387,-913.574,-560.547
1575280169.831,908.203,-994.141,853.027,983.398,263.672
1575280169.835,-339.844,999.512,-981.445,-216.309,-934.082
1575280169.839,-1000.000,999.512,977.539,-1000.000,529.297
1575280169.843,-96.191,999.512,-997.070,-132.324,-779.785
1575280169.847,-942.871,999.512,999.512,-964.844,-813.965
1575280169.851,-948.730,999.512,999.512,-914.062,146.484
1575280169.855,-130.859,999.512,999.512,-1.953,-991.211
1575280169.859,-1000.000,999.512,999.512,-1000.000,567.871
1575280169.862,-142.090,999.512,999.512,-148.438,-717.773
1575280169.866,-970.703,999.512,999.512,-971.680,-962.402
1575280169.870,-903.809,999.512,999.512,-898.438,-141.113
1575280169.874,30.762,999.512,999.512,135.254,889.648
1575280169.878,-1000.000,999.512,999.512,-1000.000,758.789
1575280169.882,-146.484,999.512,999.512,-261.230,-506.348
1575280169.886,-977.051,999.512,999.512,992.676,-952.637
1575280169.890,-895.020,999.512,999.512,-884.277,-120.117
1575280169.894,210.449,999.512,999.512,203.613,813.477
1575280169.898,-1000.000,999.512,999.512,-1000.000,888.184
1575280169.902,-379.395,999.512,999.512,-514.648,-241.699
1575280169.905,945.801,999.512,999.512,857.910,-967.285
1575280169.909,-862.305,999.512,999.512,-833.496,-284.180
1575280169.913,248.047,999.512,999.512,224.121,723.633
1575280169.917,-1000.000,999.512,999.512,-1000.000,950.195
1575280169.921,-560.059,999.512,999.512,-741.699,-187.012
1575280169.925,844.238,999.512,999.512,628.418,-1000.000
1575280169.929,-818.848,999.512,999.512,-776.367,-437.012
1575280169.933,185.547,999.512,999.512,153.320,-71.777
1575280169.937,-1000.000,999.512,999.512,-965.332,-740.234
1575280169.941,-1000.000,999.512,999.512,-1000.000,-979.004
1575280169.944,146.973,999.512,-993.164,-226.074,-201.172
1575280169.948,-734.863,999.512,955.566,-797.363,612.305
1575280169.952,275.879,999.512,-960.938,219.238,755.371
1575280169.956,-980.469,999.512,828.613,-1000.000,12.695
1575280169.960,-1000.000,999.512,-496.582,-1000.000,-758.789
1575280169.964,89.844,999.512,-903.320,-214.355,-207.520
1575280169.968,-754.395,999.512,461.914,-795.898,508.789
1575280169.972,501.465,999.512,833.984,399.902,716.797
1575280169.976,-854.980,999.512,-540.527,-924.316,141.602
1575280169.980,-1000.000,999.512,-1000.000,-1000.000,-762.207
1575280169.984,14.160,999.512,-915.527,-210.938,-319.336
1575280169.987,-846.191,999.512,-974.609,-851.562,444.824
1575280169.991,820.801,999.512,-970.703,699.219,653.809
1575280169.995,-501.465,999.512,-970.215,-687.012,238.770
1575280169.999,-1000.000,999.512,-970.703,-1000.000,-733.887
1575280170.003,-68.848,999.512,-970.703,-155.273,-502.441
1575280170.007,-945.312,999.512,-970.703,-957.520,410.156
1575280170.011,-943.359,999.512,-970.703,-960.449,748.047
1575280170.015,-95.703,999.512,-970.215,-161.621,331.055
1575280170.019,-1000.000,999.512,-970.215,-1000.000,-729.980
1575280170.023,-140.625,999.512,-970.215,-138.672,-645.508
1575280170.027,-975.098,999.512,-970.215,-976.562,393.555
1575280170.030,-895.508,999.512,-970.703,-899.414,764.160
1575280170.034,88.867,999.512,-971.680,89.355,302.734
1575280170.038,-1000.000,999.512,-966.797,-1000.000,-560.059
1575280170.042,-150.391,999.512,-949.707,-205.566,-498.535
1575280170.046,-977.539,999.512,-1000.000,-996.582,199.219
1575280170.050,-887.207,999.512,-531.250,-882.324,583.496
1575280170.054,260.742,999.512,-395.996,259.277,423.340
1575280170.058,-1000.000,999.512,-938.477,-1000.000,-438.477
1575280170.062,-272.461,999.512,-1000.000,-366.211,-618.652
1575280170.066,-999.023,999.512,-209.961,958.008,173.340
1575280170.069,-883.301,999.512,-916.504,-866.699,622.070
1575280170.073,258.301,999.512,865.234,242.676,398.438
1575280170.077,-1000.000,999.512,-372.559,-1000.000,-362.793
1575280170.081,-490.234,999.512,-1000.000,-653.809,-637.207
1575280170.085,893.066,999.512,-118.652,733.398,55.176
1575280170.089,-842.285,999.512,-864.258,-803.711,536.133
1575280170.093,225.586,999.512,729.004,202.637,362.305
1575280170.097,-1000.000,999.512,-575.684,-1000.000,-382.324
1575280170.101,-741.211,999.512,-1000.000,-921.387,-645.996
1575280170.105,614.746,999.512,-756.348,349.609,-62.500
1575280170.109,-783.203,999.512,475.098,-747.559,426.758
1575280170.112,358.887,999.512,966.797,298.340,445.312
1575280170.116,-960.938,999.512,-357.422,-957.520,-211.426
1575280170.120,-997.070,999.512,-1000.000,-1000.000,-630.371
1575280170.124,264.160,999.512,-272.461,75.684,-102.539
1575280170.128,-759.277,999.512,950.684,-755.859,430.176
1575280170.132,523.926,999.512,-882.324,479.492,426.270
1575280170.136,-831.543,999.512,84.961,-854.004,-149.414
1575280170.140,-1000.000,999.512,-1000.000,-1000.000,-584.473
1575280170.144,41.504,999.512,-86.914,-108.398,-131.836
1575280170.148,-829.102,999.512,-968.262,-839.844,424.316
1575280170.151,764.648,999.512,-937.988,719.238,502.930
1575280170.155,-559.082,999.512,697.266,-643.066,-16.602
1575280170.159,-1000.000,999.512,-303.711,-1000.000,-583.496
1575280170.163,-141.113,999.512,374.023,-155.762,-257.324
1575280170.167,-942.383,999.512,-878.418,-953.125,376.953
1575280170.171,-985.352,999.512,953.125,-970.703,560.547
1575280170.175,-222.168,999.512,997.559,-187.988,92.285
1575280170.179,-1000.000,999.512,995.605,-1000.000,-513.184
1575280170.183,-138.672,999.512,998.535,-134.277,-265.625
1575280170.187,-974.121,-1000.000,997.559,-982.910,350.098
1575280170.191,-904.297,966.309,978.516,-891.113,569.824
1575280170.194,29.297,-905.273,-924.805,131.348,188.477
1575280170.198,-1000.000,575.684,576.660,-1000.000,-489.258
1575280170.202,-143.555,308.594,507.324,-163.574,-375.488
1575280170.206,-980.957,909.668,985.352,-977.051,303.223
1575280170.210,-887.207,-842.285,-903.809,-888.672,604.004
1575280170.214,252.441,309.082,593.262,261.230,337.402
1575280170.218,-1000.000,-966.309,-773.926,-1000.000,-416.504
1575280170.222,-277.344,-1000.000,-1000.000,-313.477,-505.371
1575280170.226,997.559,-832.520,-863.281,982.422,195.801
1575280170.230,-880.859,-458.984,-850.586,-875.977,628.418
1575280170.234,257.812,-683.594,-960.938,253.906,492.188
1575280170.237,-1000.000,-1000.000,-979.004,-1000.000,-350.586
1575280170.241,-451.172,-956.055,-963.867,-509.766,-703.613
1575280170.245,914.062,-967.285,-971.680,862.793,1.465
1575280170.249,-850.098,-971.191,-970.215,-835.938,573.242
1575280170.253,266.113,-970.215,-970.703,363.770,763.184
1575280170.257,-1000.000,-970.215,-970.703,-1000.000,-158.203
1575280170.261,-659.668,-970.215,-970.703,-800.781,-954.590
1575280170.265,720.703,-970.215,-970.703,566.895,-104.980
1575280170.269,-806.152,-970.703,-970.215,-789.551,677.734
1575280170.273,421.875,-970.703,-970.703,494.629,738.770
1575280170.276,-962.402,-970.703,-970.215,-871.582,-127.930
1575280170.280,-928.223,-970.215,-970.215,-1000.000,-1000.000
1575280170.284,409.180,-970.215,-970.215,206.055,-383.789
1575280170.288,-786.133,-970.215,-970.215,-808.594,615.723
1575280170.292,593.750,-970.215,-970.215,725.098,895.020
1575280170.296,-780.762,-970.703,-970.703,-610.840,290.527
1575280170.300,-1000.000,-970.215,-970.703,-1000.000,-834.473
1575280170.304,158.203,-970.703,-970.703,22.949,-642.090
1575280170.308,-831.543,-970.215,-970.703,-868.652,365.234
1575280170.312,810.547,-970.215,-970.703,883.301,958.496
1575280170.316,-492.676,-970.215,-974.609,-390.137,379.395
1575280170.319,-1000.000,-970.215,-953.125,-1000.000,-755.371
1575280170.323,-53.711,-970.703,-982.422,-177.246,-810.059
1575280170.327,-901.367,-970.215,-967.285,-885.742,218.262
1575280170.331,957.520,-970.215,-377.441,825.195,872.559
1575280170.335,-296.875,-974.609,-497.559,-503.906,250.977
1575280170.339,-1000.000,-950.684,-975.586,-1000.000,-836.426
1575280170.343,-148.438,-983.398,-1000.000,-656.738,-773.926
1575280170.347,-955.566,-946.777,-202.148,900.391,76.172
1575280170.351,-943.848,-194.336,-903.320,596.191,475.586
1575280170.355,-123.047,-318.359,858.887,-952.148,69.824
1575280170.359,-1000.000,-1000.000,-588.379,-934.570,-790.039
1575280170.362,-220.215,-1000.000,-205.078,-1000.000,-776.855
1575280170.366,-999.023,-709.473,-878.418,-7.812,-28.809
1575280170.370,-900.879,-76.660,977.539,344.238,304.199
1575280170.374,55.664,-522.949,974.121,-1000.000,153.320
1575280170.378,-1000.000,-1000.000,-994.629,-916.016,-597.656
1575280170.382,-456.055,-950.684,999.512,-1000.000,-933.594
1575280170.386,881.836,-963.379,-991.699,-374.512,-182.129
1575280170.390,-839.844,-972.656,940.430,117.188,415.527
1575280170.394,233.398,-970.703,-915.039,-1000.000,373.047
1575280170.398,-1000.000,-975.098,627.441,-940.430,-404.785
1575280170.401,-666.504,-916.504,-733.887,-1000.000,-988.770
1575280170.405,728.027,-1000.000,-1000.000,-624.512,-402.344
1575280170.409,-803.223,-545.898,185.547,76.660,367.188
1575280170.413,205.078,941.406,860.840,-873.047,705.078
1575280170.417,-1000.000,380.859,-390.625,-972.656,-149.902
1575280170.421,-854.492,-1000.000,-1000.000,-1000.000,-1000.000
1575280170.425,469.238,-63.965,-1000.000,-485.352,-453.125
1575280170.429,-759.766,-901.367,-617.676,939.453,335.449
1575280170.433,235.352,969.238,851.562,-260.742,875.000
1575280170.437,-995.605,977.539,284.180,-1000.000,4.883
1575280170.441,-1000.000,-994.629,-1000.000,-1000.000,-1000.000
1575280170.444,176.270,999.512,-133.789,-386.230,-266.602
1575280170.448,-739.746,999.512,-905.273,-843.262,487.793
1575280170.452,421.875,999.512,974.609,200.684,573.242
1575280170.456,-892.578,999.512,974.121,-1000.000,-20.020
1575280170.460,-1000.000,999.512,-994.141,-1000.000,-920.410
1575280170.464,8.301,-993.652,999.512,-300.293,-505.371
1575280170.468,-824.219,962.891,999.512,-848.633,397.461
1575280170.472,750.977,-978.027,-994.629,619.629,812.500
1575280170.476,-599.121,887.207,971.191,-789.551,724.609
1575280170.480,-1000.000,-340.332,998.047,-1000.000,-329.590
1575280170.483,-43.945,-1000.000,979.004,-195.801,-998.047
1575280170.487,-898.438,-923.828,-203.125,-859.375,-937.988
1575280170.491,948.730,-968.262,-1000.000,714.844,-448.730
1575280170.495,-309.570,-972.168,-925.781,-662.109,753.418
1575280170.499,-1000.000,-970.215,-964.355,-1000.000,291.504
1575280170.503,-140.625,-970.215,-972.656,-240.234,-972.656
1575280170.507,-970.215,-970.215,-970.703,-928.711,-988.770
1575280170.511,-915.039,-970.215,-970.215,885.254,-633.789
1575280170.515,-27.832,-970.215,-970.703,-434.082,549.805
1575280170.519,-1000.000,-970.215,-970.703,-1000.000,540.527
1575280170.523,-141.113,-970.215,-970.703,-489.258,-760.742
1575280170.526,-979.980,-970.215,-970.215,867.188,-1000.000
1575280170.530,-889.160,-970.703,-970.215,-891.113,-414.062
1575280170.534,195.312,-970.215,-970.215,-128.906,735.840
1575280170.538,-1000.000,-970.215,-970.215,-1000.000,-990.723
1575280170.542,-248.047,-970.703,-970.703,-463.379,3.418
1575280170.546,-998.535,-970.215,-970.703,851.074,-679.199
1575280170.550,-881.348,-970.215,-970.703,-833.984,166.016
1575280170.554,258.301,-970.703,-970.215,224.121,960.938
1575280170.558,-1000.000,-970.215,-975.098,-1000.000,-983.398
1575280170.562,-403.320,-970.215,-951.660,-524.414,148.438
1575280170.566,935.547,-970.703,-947.266,858.398,-720.703
1575280170.569,-858.887,-970.215,-1000.000,-833.984,-235.352
1575280170.573,304.688,-970.215,87.891,233.398,691.895
1575280170.577,-1000.000,-970.215,-910.645,-1000.000,-912.109
1575280170.581,-619.141,-970.215,962.891,-666.016,206.543
1575280170.585,772.949,-970.215,986.816,705.078,-915.527
1575280170.589,-815.918,-970.215,-996.582,-798.828,-586.914
1575280170.593,427.246,-970.215,-994.141,321.289,470.215
1575280170.597,-945.801,-970.215,937.012,-979.492,-902.832
1575280170.601,-966.309,-979.004,-889.160,-982.422,220.703
1575280170.605,346.191,-928.223,456.055,271.973,-955.566
1575280170.608,-767.090,-1000.000,-864.746,-751.953,-773.438
1575280170.612,530.273,-846.191,-1000.000,433.594,238.281
1575280170.616,-820.801,444.824,-890.625,-877.930,-901.855
1575280170.620,-1000.000,-905.273,-843.750,-1000.000,395.020
1575280170.624,28.320,944.824,-953.125,-22.949,-868.652
1575280170.628,-831.543,-997.559,-919.922,-797.852,-814.453
1575280170.632,767.578,-1000.000,-1000.000,615.234,184.082
1575280170.636,-558.105,-999.512,-233.398,-743.652,-943.848
1575280170.640,-1000.000,995.605,-952.637,-1000.000,604.980
1575280170.644,-137.695,982.910,991.699,-142.578,-607.910
1575280170.648,-947.754,-933.105,968.262,-908.203,-887.207
1575280170.651,-968.750,553.711,-992.676,913.574,-16.602
1575280170.655,-190.430,522.949,-997.070,-385.254,989.746
1575280170.659,-1000.000,952.637,988.770,-1000.000,580.566
1575280170.663,-141.113,-310.059,963.379,-158.203,-685.059
1575280170.667,-970.215,-1000.000,-933.105,-936.035,-1000.000
1575280170.671,-907.715,-919.922,90.332,992.188,-569.824
1575280170.675,9.766,-968.262,-1000.000,-241.211,662.109
1575280170.679,-1000.000,-972.168,-940.430,-1000.000,705.566
1575280170.683,-144.043,-970.215,-947.266,-340.332,-604.004
1575280170.687,-978.516,-970.215,-977.539,986.328,-1000.000
1575280170.691,-893.066,-970.215,-969.727,-961.914,-701.172
1575280170.694,213.867,-970.215,-970.703,-231.934,455.078
1575280170.698,-1000.000,-970.703,-970.215,-1000.000,794.434
1575280170.702,-350.098,-970.215,-970.215,-819.336,-488.770
1575280170.706,960.449,-970.215,-970.215,557.617,-1000.000
1575280170.710,-867.676,-970.215,-970.215,-947.266,-776.855
1575280170.714,251.465,-970.215,-970.215,-413.086,301.758
1575280170.718,-1000.000,-970.215,-970.215,-1000.000,-989.746
1575280170.722,-527.344,-970.215,-970.215,-1000.000,-46.875
1575280170.726,869.141,-970.215,-970.215,22.461,-997.070
1575280170.730,-835.449,-970.215,-970.215,-753.418,-409.180
1575280170.733,233.398,-970.215,-970.215,204.102,667.969
1575280170.737,-1000.000,-970.215,-970.703,-1000.000,-911.133
1575280170.741,-594.727,-970.215,-979.980,-855.957,520.020
1575280170.745,779.297,-970.215,-908.203,434.082,-347.656
1575280170.749,-828.125,-970.215,-1000.000,-770.508,-55.176
1575280170.753,525.391,-970.215,-545.898,421.875,744.141
1575280170.757,-977.051,-970.215,818.848,-1000.000,-908.203
1575280170.761,-734.375,-970.215,-950.195,-767.578,476.562
1575280170.765,713.867,-970.215,949.219,627.930,-607.910
1575280170.769,-867.676,-970.215,-989.746,-836.426,-767.578
1575280170.773,757.812,-970.215,999.512,672.852,108.887
1575280170.776,-646.973,-970.215,-993.652,-692.871,-938.477
1575280170.780,-1000.000,-970.215,963.379,-1000.000,352.051
1575280170.784,393.555,-970.215,-980.957,185.059,-856.934
1575280170.788,-863.281,-970.703,901.367,-790.527,-975.098
1575280170.792,889.648,-970.703,-327.148,625.977,-405.273
1575280170.796,-359.863,-970.703,-1000.000,-691.406,608.398
1575280170.800,-1000.000,-970.215,-923.340,-1000.000,85.449
1575280170.804,4.883,-970.215,-968.750,-231.445,-982.910
1575280170.808,-899.414,-970.215,-972.168,-821.289,-992.188
1575280170.812,983.398,-970.215,-970.215,364.258,-664.062
1575280170.815,-231.934,-970.215,-970.703,-961.426,463.379
1575280170.819,-1000.000,-970.703,-970.703,-991.211,523.926
1575280170.823,-145.020,-970.215,-970.215,-954.590,-643.555
1575280170.827,-963.379,-970.215,-970.215,518.555,-1000.000
1575280170.831,-921.875,-970.703,-970.215,375.488,-384.766
1575280170.835,-60.059,-970.215,-970.215,-1000.000,726.562
1575280170.839,-1000.000,-970.215,-970.215,-934.082,934.082
1575280170.843,-133.789,-970.215,-972.168,-1000.000,-70.801
1575280170.847,-987.793,-970.215,-963.379,160.645,-659.668
1575280170.851,-880.371,-970.215,-920.410,-808.594,146.973
1575280170.855,254.395,-970.215,-1000.000,-105.957,940.918
1575280170.858,-1000.000,-970.215,-76.660,-1000.000,997.559
1575280170.862,-178.223,-970.215,-910.645,-503.418,445.801
1575280170.866,-966.797,-970.703,970.215,811.035,-265.137
1575280170.870,-894.043,-970.703,979.492,-823.730,86.426
1575280170.874,263.672,-970.703,-995.605,253.418,883.789
1575280170.878,-1000.000,-970.215,999.512,-1000.000,990.723
1575280170.882,-353.516,-970.215,999.512,-688.965,151.855
1575280170.886,957.520,-970.215,999.512,670.410,-816.895
1575280170.890,-867.676,-970.215,-1000.000,-793.457,-723.633
1575280170.894,346.680,-970.215,999.512,314.941,93.750
1575280170.898,-1000.000,-970.215,937.500,-943.848,598.145
1575280170.901,-612.793,-970.215,-864.258,-1000.000,-320.801
1575280170.905,784.180,-970.215,215.820,69.824,-1000.000
1575280170.909,-834.473,-970.215,-1000.000,-755.371,-984.375
1575280170.913,560.059,-970.215,-954.590,358.887,-745.605
1575280170.917,-926.270,-970.215,-943.359,-908.691,-83.984
1575280170.921,-838.867,-970.215,-977.539,-1000.000,-478.516
1575280170.925,614.746,-970.215,-970.215,-210.938,-1000.000
1575280170.929,-879.395,-970.215,-970.215,-809.570,-951.172
1575280170.933,857.910,-970.215,-970.215,470.703,-962.891
1575280170.937,-481.934,-970.215,-970.215,-882.812,-972.656
1575280170.940,-1000.000,-970.215,-970.215,-1000.000,-970.215
1575280170.944,327.637,-970.215,-970.215,-227.051,-978.027
1575280170.948,-894.531,-970.215,-970.215,-901.855,-910.156
1575280170.952,-986.328,-970.215,-970.215,834.961,-1000.000
1575280170.956,-151.367,-970.215,-970.215,-508.301,-519.043
1575280170.960,-1000.000,-970.703,-970.215,-1000.000,815.918
1575280170.964,73.242,-970.215,-970.215,-155.762,-941.406
1575280170.968,-922.852,-970.215,-970.703,997.070,867.676
1575280170.972,-934.082,-970.215,-970.703,-890.137,924.316
1575280170.976,37.598,-970.215,-970.215,161.133,989.258
1575280170.980,-1000.000,-970.215,-970.215,-1000.000,-959.961
1575280170.983,-144.043,-970.703,-970.215,-269.531,833.496
1575280170.987,-979.980,-970.703,-970.703,985.352,316.895
1575280170.991,-882.812,-970.215,-970.703,-875.488,585.938
1575280170.995,225.098,-970.215,-970.703,250.977,-980.469
1575280170.999,-1000.000,-970.703,-970.215,-1000.000,936.523
1575280171.003,-168.457,-971.680,-970.215,-416.016,249.023
1575280171.007,-967.285,-906.738,-970.703,923.828,-692.871
1575280171.011,-885.254,-1000.000,-970.703,-854.492,-988.281
1575280171.015,254.395,-217.773,-970.215,249.023,-947.266
1575280171.019,-1000.000,-971.680,-970.215,-1000.000,-970.215
1575280171.022,-169.434,-906.250,-970.703,-691.406,-971.191
1575280171.026,-968.750,2.930,-970.215,668.945,-970.215
1575280171.030,-895.508,-1000.000,-970.215,-797.852,-970.215
1575280171.034,323.242,-114.746,-970.215,280.762,-970.215
1575280171.038,-1000.000,-974.121,-970.215,-1000.000,-970.215
1575280171.042,-404.785,-892.578,-970.215,-869.629,-971.680
1575280171.046,936.035,247.559,-970.703,433.594,-969.727
1575280171.050,-861.816,-1000.000,-970.703,-812.988,-912.598
1575280171.054,414.062,-357.422,-970.215,668.945,-1000.000
1575280171.058,-1000.000,-905.273,-971.191,-777.832,-188.965
1575280171.062,-780.762,872.559,-973.145,-920.898,-946.777
1575280171.065,611.816,-559.082,-906.738,540.039,987.305
1575280171.069,-786.621,-1000.000,-1000.000,-907.227,971.191
1575280171.073,431.641,-1000.000,-242.188,962.402,-993.164
1575280171.077,-883.789,-50.781,-958.008,-236.816,999.512
1575280171.081,-1000.000,302.246,993.652,-1000.000,999.512
1575280171.085,61.035,-1000.000,967.773,137.695,999.512
1575280171.089,-771.973,-905.273,-992.188,-879.395,999.512
1575280171.093,556.152,-1000.000,999.512,953.613,999.512
1575280171.097,-793.457,-120.605,999.512,-206.543,999.512
1575280171.101,-1000.000,833.008,-997.559,-1000.000,999.512
1575280171.105,-148.926,-668.945,979.980,-107.422,999.512
1575280171.108,-891.113,-1000.000,-979.004,-943.359,999.512
1575280171.112,861.816,-1000.000,858.398,-958.984,-1000.000
1575280171.116,-470.215,-213.867,318.359,-61.035,995.605
1575280171.120,-1000.000,-778.320,-310.059,-1000.000,-996.582
1575280171.124,-147.461,190.918,-892.578,-158.203,999.512
1575280171.128,-961.426,-1000.000,-976.562,-979.980,910.645
1575280171.132,-938.965,-1000.000,-906.738,-895.996,958.008
1575280171.136,-123.535,-215.332,-1000.000,161.133,-992.188
1575280171.140,-1000.000,-794.922,-108.398,-1000.000,-993.652
1575280171.144,-147.949,186.035,-948.730,-304.199,962.891
1575280171.147,-967.773,-985.840,982.910,973.633,908.203
1575280171.151,-919.434,-1000.000,975.098,-874.512,996.094
1575280171.155,20.020,-521.973,-994.141,213.867,993.164
1575280171.159,-1000.000,852.051,999.512,-1000.000,-988.281
1575280171.163,-407.227,-291.992,999.512,-510.254,954.102
1575280171.167,914.551,-1000.000,999.512,848.633,642.578
1575280171.171,-855.957,-896.484,999.512,-834.961,768.555
1575280171.175,158.691,-997.070,999.512,228.516,-985.352
1575280171.179,-1000.000,-665.527,999.512,-1000.000,998.535
1575280171.183,-619.629,-808.105,999.512,-615.723,803.711
1575280171.187,760.254,-1000.000,999.512,747.070,40.527
1575280171.190,-811.523,-907.227,999.512,-813.965,-158.203
1575280171.194,225.098,-1000.000,999.512,301.758,549.805
1575280171.198,-1000.000,177.246,999.512,-1000.000,803.711
1575280171.202,-647.949,315.918,999.512,-688.477,277.832
1575280171.206,731.445,-1000.000,-993.164,675.293,-507.324
1575280171.210,-808.105,-1000.000,958.496,-846.680,-547.852
1575280171.214,371.094,-581.055,-965.332,693.848,196.777
1575280171.218,-1000.000,790.039,833.984,-847.656,571.289
1575280171.222,-695.312,-820.801,-423.340,-591.797,202.148
1575280171.226,712.891,77.637,-1000.000,932.617,-494.141
1575280171.230,-851.562,-1000.000,-921.875,989.258,-603.027
1575280171.233,706.055,-214.355,-971.191,-889.648,53.711
1575280171.237,-785.645,987.305,-971.680,-171.387,596.680
1575280171.241,-856.934,-882.324,-970.215,-499.512,383.789
1575280171.245,658.691,503.906,-970.215,-966.797,-322.754
1575280171.249,-920.898,-1000.000,-970.215,959.961,-854.004
1575280171.253,979.004,-296.387,-970.215,-841.309,-1000.000
1575280171.257,-295.898,-988.281,-970.215,50.293,-863.770
1575280171.261,-1000.000,-897.949,-970.215,-421.387,-265.137
1575280171.265,374.023,500.977,-970.215,-960.938,-492.188
1575280171.269,-905.273,-980.469,-970.215,958.008,-989.746
1575280171.272,-957.520,-829.102,-970.215,-847.168,-986.816
1575280171.276,-63.477,594.727,-970.215,274.414,-795.410
1575280171.280,-1000.000,-775.391,-970.215,-311.035,305.176
1575280171.284,104.492,152.344,-970.215,-995.605,818.848
1575280171.288,-917.480,-964.844,-970.215,-999.023,-39.551
1575280171.292,-931.641,-1000.000,-970.215,-959.473,-218.750
1575280171.296,80.566,-213.379,-970.215,802.734,713.379
1575280171.300,-1000.000,-811.523,-974.121,206.055,-927.734
1575280171.304,-154.297,68.848,-954.590,868.164,883.789
1575280171.308,-969.238,-1000.000,-944.336,-976.074,768.555
1575280171.312,-891.113,-1000.000,-1000.000,-967.285,929.199
1575280171.315,136.230,-476.562,47.363,863.770,999.512
1575280171.319,-1000.000,-992.188,-922.363,-286.621,-984.375
1575280171.323,-156.738,-145.508,968.750,422.363,771.484
1575280171.327,-972.656,-1000.000,983.398,-889.160,250.977
1575280171.331,-893.555,-979.980,-996.094,987.305,445.312
1575280171.335,251.953,-787.598,999.512,916.992,931.641
1575280171.339,-1000.000,827.637,999.512,-582.520,989.746
1575280171.343,-375.977,213.379,999.512,-73.730,687.988
1575280171.347,952.637,-1000.000,999.512,-879.395,3.418
1575280171.351,-865.234,-1000.000,999.512,988.770,-116.211
1575280171.354,245.605,-668.945,-995.605,936.523,646.484
1575280171.358,-1000.000,956.055,967.285,-599.121,911.621
1575280171.362,-613.770,530.273,-977.539,-297.363,498.535
1575280171.366,785.156,-918.457,826.660,-914.062,-99.609
1575280171.370,-812.988,-1000.000,-272.949,992.676,-252.930
1575280171.374,203.613,-638.672,-1000.000,978.027,450.195
1575280171.378,-1000.000,860.352,-469.727,-516.602,944.336
1575280171.382,-885.254,887.207,344.238,-489.746,564.453
1575280171.386,416.992,-566.895,3.418,-986.816,-148.926
1575280171.390,-752.930,-1000.000,-823.730,-999.512,-228.516
1575280171.394,272.461,-635.254,-1000.000,-977.051,259.766
1575280171.397,-975.098,661.133,-812.500,-326.172,667.969
1575280171.401,-1000.000,-786.621,-730.957,-825.195,414.551
1575280171.405,131.836,224.609,-964.844,734.375,-333.496
1575280171.409,-755.859,-1000.000,-980.957,-974.121,-688.477
1575280171.413,529.297,-282.715,-960.938,-901.855,-230.469
1575280171.417,-840.332,-946.289,-972.656,-10.254,426.758
1575280171.421,-1000.000,943.359,-970.215,-917.480,386.719
1575280171.425,68.848,-852.051,-971.191,585.938,-327.148
1575280171.429,-857.910,56.641,-971.680,-962.402,-494.629
1575280171.433,872.070,-149.414,-923.828,-875.977,88.867
1575280171.437,-412.109,-886.230,-1000.000,178.711,695.312
1575280171.440,-1000.000,922.852,-466.309,-881.348,716.797
1575280171.444,-66.895,-823.242,766.113,576.172,1.465
1575280171.448,-944.336,4.395,-966.797,-954.102,-254.883
1575280171.452,-941.895,-635.254,961.914,-896.484,135.254
1575280171.456,-87.891,915.039,-996.582,398.926,643.066
1575280171.460,-1000.000,-991.699,999.512,-875.000,703.613
1575280171.464,-135.742,-871.582,999.512,415.039,134.766
1575280171.468,-982.910,-34.668,-992.676,-906.250,-372.559
1575280171.472,-885.742,-680.176,948.730,-979.492,-326.660
1575280171.476,175.293,884.277,-937.012,804.199,276.855
1575280171.479,-1000.000,-928.711,717.773,-416.504,433.594
1575280171.483,-161.621,939.941,-594.727,355.957,-294.922
1575280171.487,-971.191,-986.328,-1000.000,-837.891,-895.020
1575280171.491,-883.789,999.512,-919.434,938.477,-725.586
1575280171.495,254.395,999.512,-976.562,986.816,-207.031
1575280171.499,-1000.000,999.512,-970.703,964.844,51.270
1575280171.503,-166.992,999.512,-970.703,-999.023,-245.605
1575280171.507,-971.680,999.512,-970.703,-999.512,-802.734
1575280171.511,-891.602,999.512,-970.215,998.047,-973.145
1575280171.515,376.465,999.512,-970.215,999.512,-997.070
1575280171.519,-1000.000,999.512,-970.215,999.512,-797.852
1575280171.522,-306.641,999.512,-970.703,999.512,-454.102
1575280171.526,986.816,999.512,-970.215,999.512,-807.129
1575280171.530,-879.395,999.512,-970.215,999.512,-1000.000
1575280171.534,506.348,999.512,-970.215,999.512,-950.195
1575280171.538,-1000.000,999.512,-970.215,999.512,-972.168
1575280171.542,-311.035,999.512,-970.215,999.512,-970.215
1575280171.546,-983.887,999.512,-970.703,999.512,-970.215
1575280171.550,-947.266,999.512,-970.703,999.512,-970.215
1575280171.554,782.715,999.512,-970.703,999.512,-970.215
1575280171.558,-729.004,999.512,-970.215,999.512,-970.215
1575280171.561,-863.281,999.512,-970.215,999.512,-970.215
1575280171.565,642.090,999.512,-970.703,999.512,-970.703
1575280171.569,-869.141,999.512,-970.215,999.512,-971.680
1575280171.573,818.359,999.512,-970.215,999.512,-949.219
1575280171.577,-493.164,999.512,-972.168,999.512,-1000.000
1575280171.581,-1000.000,999.512,-970.215,999.512,-732.422
1575280171.585,145.508,999.512,-925.293,999.512,-402.832
1575280171.589,-853.516,999.512,-1000.000,999.512,-687.012
1575280171.593,886.230,999.512,-398.926,999.512,-80.078
1575280171.597,-363.281,999.512,829.590,999.512,923.340
1575280171.601,-1000.000,921.875,-970.703,999.512,-987.305
1575280171.604,-154.785,-795.410,961.426,999.512,971.191
1575280171.608,-942.871,119.629,-994.141,999.512,-994.629
1575280171.612,-980.957,-735.840,999.512,999.512,999.512
1575280171.616,-213.379,711.914,999.512,999.512,999.512
1575280171.620,-1000.000,-762.695,999.512,999.512,999.512
1575280171.624,-179.688,348.633,999.512,999.512,999.512
1575280171.628,-971.191,-883.301,999.512,999.512,999.512
1575280171.632,-932.617,-1000.000,999.512,999.512,999.512
1575280171.636,-68.359,-208.984,999.512,999.512,999.512
1575280171.640,-1000.000,-803.223,999.512,999.512,999.512
1575280171.644,-390.137,188.477,999.512,-1000.000,999.512
1575280171.647,916.504,-994.141,999.512,990.723,999.512
1575280171.651,-858.398,-1000.000,999.512,985.840,999.512
1575280171.655,143.555,-531.250,999.512,-918.945,999.023
1575280171.659,-1000.000,-931.641,999.512,428.711,997.559
1575280171.663,-498.047,337.891,999.512,482.910,-994.141
1575280171.667,871.094,-1000.000,-1000.000,-906.738,965.820
1575280171.671,-834.961,-1000.000,-999.512,950.684,965.820
1575280171.675,238.770,-156.250,937.988,-905.273,999.512
1575280171.679,-1000.000,999.023,-870.605,470.215,993.164
1575280171.683,-493.164,-874.023,255.859,440.918,-976.074
1575280171.686,872.070,231.934,-1000.000,-912.598,702.148
1575280171.690,-845.703,-1000.000,-963.379,968.750,661.133
1575280171.694,491.699,-75.195,-939.453,-958.984,999.512
1575280171.698,-1000.000,-893.555,-978.516,774.414,-998.047
1575280171.702,-562.012,979.980,-970.215,740.234,954.102
1575280171.706,890.625,971.680,-970.215,-961.914,604.492
1575280171.710,-911.621,746.582,-970.703,992.676,222.168
1575280171.714,813.477,924.805,-970.215,997.070,103.027
1575280171.718,-690.430,979.004,-970.215,993.652,590.820
1575280171.722,-790.039,-946.289,-970.703,991.699,-944.336
1575280171.726,768.555,835.938,-970.215,-999.512,533.203
1575280171.729,-939.941,-789.062,-970.215,999.023,-397.949
1575280171.733,994.629,-263.184,-970.703,999.023,-843.262
1575280171.737,-309.082,-938.477,-970.703,999.512,-312.988
1575280171.741,-1000.000,-929.688,-970.215,999.512,641.113
1575280171.745,490.723,635.742,-970.215,999.512,204.102
1575280171.749,-913.086,-954.102,-970.215,999.512,-845.703
1575280171.753,-963.379,-625.488,-970.215,999.512,-1000.000
1575280171.757,-70.312,862.305,-970.215,999.512,-342.773
1575280171.761,-1000.000,-822.754,-970.703,999.512,882.324
1575280171.765,86.426,153.809,-970.215,999.512,997.559
1575280171.769,-911.621,-953.125,-970.215,999.512,904.785
1575280171.772,-942.871,-1000.000,-970.215,999.512,-992.188
1575280171.776,5.371,-124.512,-970.215,999.512,984.375
1575280171.780,-1000.000,967.773,-970.215,999.512,-975.586
1575280171.784,-148.926,-503.418,-970.215,-995.117,933.105
1575280171.788,-969.727,-1000.000,-970.703,963.867,526.367
1575280171.792,-895.508,-1000.000,-970.215,-952.148,732.910
1575280171.796,93.750,-520.996,-970.703,939.453,-974.121
1575280171.800,-1000.000,830.566,-977.051,248.535,-996.582
1575280171.804,-152.344,-384.277,-916.016,711.914,695.312
1575280171.808,-975.098,-1000.000,-1000.000,-952.637,116.211
1575280171.811,-895.020,-1000.000,-564.453,-972.656,322.754
1575280171.815,240.723,-554.688,744.141,853.516,880.859
1575280171.819,-1000.000,-954.590,-949.219,-672.363,984.375
1575280171.823,-406.738,59.082,953.125,-16.602,810.547
1575280171.827,936.035,-1000.000,-993.652,-891.602,305.176
1575280171.831,-856.445,-907.227,999.512,-946.777,283.691
1575280171.835,226.562,-1000.000,999.512,647.949,872.559
1575280171.839,-1000.000,-263.672,999.512,-966.797,-961.914
1575280171.843,-810.547,-431.152,999.512,-232.910,737.305
1575280171.847,540.527,-1000.000,999.512,-946.777,131.348
1575280171.851,-765.625,-927.734,999.512,-913.086,218.262
1575280171.854,167.969,-975.586,999.512,498.535,803.711
1575280171.858,-992.188,-970.215,999.512,-1000.000,-965.820
1575280171.862,-1000.000,-970.215,999.512,-605.957,670.410
1575280171.866,30.273,-970.215,999.512,810.059,-86.426
1575280171.870,-744.629,-970.215,999.512,-826.660,-110.352
1575280171.874,171.387,-970.703,999.512,351.074,417.969
1575280171.878,-990.723,-970.215,999.512,-961.426,636.719
1575280171.882,-1000.000,-970.215,999.512,-995.117,306.152
1575280171.886,-192.871,-981.445,999.512,238.281,-488.770
1575280171.890,-786.621,-896.973,999.512,-753.906,-837.402
1575280171.893,301.270,-1000.000,999.512,358.398,-208.496
1575280171.897,-966.797,-281.250,999.512,-913.574,254.883
1575280171.901,-1000.000,191.895,999.512,-1000.000,-17.578
1575280171.905,-217.773,-1000.000,999.512,-74.707,-624.512
1575280171.909,-823.730,-922.363,999.512,-802.246,-794.434
1575280171.913,601.074,-1000.000,999.512,582.031,-121.582
1575280171.917,-796.387,-105.469,999.512,-782.715,467.285
1575280171.921,-1000.000,767.578,999.512,-1000.000,83.984
1575280171.925,-157.227,-701.660,-994.629,-98.145,-674.316
1575280171.929,-963.867,-1000.000,972.168,-903.320,-990.234
1575280171.933,-944.336,-852.051,996.094,922.363,-802.734
1575280171.936,-139.648,418.457,983.887,-362.305,-277.344
1575280171.940,-1000.000,-878.418,-187.988,-1000.000,-406.250
1575280171.944,-110.840,932.617,-1000.000,-62.012,-925.293
1575280171.948,-987.793,-992.676,-926.758,-980.469,-995.605
1575280171.952,-880.371,999.512,-963.867,-880.859,-786.621
1575280171.956,252.930,999.512,-973.145,170.898,-208.008
1575280171.960,-1000.000,999.512,-970.703,-1000.000,-32.715
1575280171.964,-144.531,999.512,-970.703,38.086,-559.082
1575280171.968,-958.984,999.512,-970.215,-936.035,-752.930
1575280171.972,-889.648,999.512,-970.215,-894.043,-347.168
1575280171.976,256.348,999.512,-970.703,302.246,242.188
1575280171.979,-1000.000,999.512,-970.703,-1000.000,566.406
1575280171.983,-172.852,999.512,-970.215,56.641,323.730
1575280171.987,-964.844,999.512,-970.215,-925.293,-348.633
1575280171.991,-888.184,999.512,-970.703,-924.805,-1000.000
1575280171.995,257.324,999.512,-970.215,590.820,-768.066
1575280171.999,-1000.000,999.512,-970.215,-985.352,181.641
1575280172.003,-217.285,999.512,-970.703,-61.035,515.625
1575280172.007,-987.305,999.512,-970.215,-884.766,-151.367
1575280172.011,-890.137,999.512,-970.215,975.098,-827.637
1575280172.015,350.586,-995.605,-970.215,981.934,-308.105
1575280172.018,-1000.000,964.844,-970.703,-520.508,818.848
1575280172.022,-502.441,-973.633,-970.215,-234.375,962.402
1575280172.026,885.742,-970.703,-970.215,-871.094,366.211
1575280172.030,-841.797,24.414,-977.539,939.453,519.043
1575280172.034,398.926,423.828,-932.617,-878.906,-978.516
1575280172.038,-993.164,-906.250,-997.559,-224.121,990.234
1575280172.042,-878.906,-858.887,-836.914,-310.547,911.621
1575280172.046,472.656,88.867,397.461,-878.418,598.145
1575280172.050,-799.805,-260.742,-917.969,926.270,-329.590
1575280172.054,623.047,-913.086,952.637,-829.102,-1000.000
1575280172.058,-772.949,-989.746,998.047,86.914,34.180
1575280172.061,-1000.000,965.332,-999.023,-259.277,-872.559
1575280172.065,250.000,-994.141,999.512,-913.086,658.203
1575280172.069,-782.227,999.512,999.512,936.035,354.004
1575280172.073,624.023,-985.352,999.512,-824.707,814.941
1575280172.077,-705.566,928.711,999.512,91.309,-952.637
1575280172.081,-1000.000,-908.691,999.512,-549.805,888.184
1575280172.085,-122.070,705.078,999.512,949.707,280.273
1575280172.089,-857.422,-890.625,999.512,989.746,-53.711
1575280172.093,770.020,-760.742,999.512,-878.418,415.039
1575280172.097,-589.355,714.844,999.512,207.520,936.523
1575280172.100,-1000.000,-804.199,999.512,-1000.000,826.660
1575280172.104,-160.156,389.648,999.512,413.574,13.672
1575280172.108,-937.988,-925.293,999.512,-920.410,-418.457
1575280172.112,992.188,-1000.000,999.512,-921.387,-80.566
1575280172.116,-269.531,177.734,999.512,277.344,589.355
1575280172.120,-1000.000,-788.574,999.512,-1000.000,653.809
1575280172.124,-137.695,648.438,999.512,-2.441,-52.246
1575280172.128,-976.074,-727.539,999.512,-939.453,-646.484
1575280172.132,-903.320,-1000.000,999.512,-903.809,-497.559
1575280172.136,33.203,203.125,999.512,377.930,318.359
1575280172.140,-1000.000,-956.543,-993.652,-1000.000,566.406
1575280172.143,-143.555,-846.191,948.730,-124.512,-244.141
1575280172.147,-981.445,69.336,-930.664,-942.871,-920.410
1575280172.151,-882.812,-512.207,658.691,-949.219,-566.895
1575280172.155,256.348,980.957,-629.883,760.254,211.426
1575280172.159,-1000.000,-946.289,-1000.000,-819.336,476.074
1575280172.163,-208.008,945.801,-924.805,-223.633,-219.727
1575280172.167,-977.539,-987.305,-975.098,-867.188,-937.988
1575280172.171,-881.836,999.512,-971.191,921.387,-777.344
1575280172.175,255.371,999.512,-970.703,-853.516,68.359
1575280172.179,-1000.000,999.512,-970.215,-24.902,567.871
1575280172.183,-192.871,999.512,-970.703,-168.945,68.848
1575280172.186,-986.816,999.512,-970.703,-873.535,-698.730
1575280172.190,-890.137,999.512,-970.215,978.027,-954.590
1575280172.194,503.906,999.512,-970.215,-994.141,-1000.000
1575280172.198,-1000.000,999.512,-970.215,874.512,-562.988
1575280172.202,-273.438,999.512,-970.215,846.680,-295.898
1575280172.206,-978.027,999.512,-970.215,-977.051,-908.691
1575280172.210,-923.828,999.512,-970.215,995.605,-999.023
1575280172.214,687.988,999.512,-970.703,997.070,-947.266
1575280172.218,-929.199,999.512,-970.215,999.512,-974.609
1575280172.222,-503.906,999.512,-970.215,999.512,-970.215
1575280172.225,964.355,999.512,-970.703,999.512,-972.656
1575280172.229,-944.824,999.512,-970.215,999.512,-960.449
1575280172.233,862.305,999.512,-970.215,999.512,-978.516
1575280172.237,-632.812,999.512,-970.703,999.512,-961.426
1575280172.241,-812.988,999.512,-970.703,999.512,-643.555
1575280172.245,755.859,999.512,-970.215,999.512,-727.051
1575280172.249,-940.430,999.512,-970.703,999.512,-945.312
1575280172.253,-996.582,-996.582,-970.703,999.512,-1000.000
1575280172.257,-240.234,980.957,-970.703,999.512,-431.641
1575280172.261,-1000.000,952.637,-970.703,999.512,890.137
1575280172.265,335.938,-842.285,-970.703,999.512,-984.863
1575280172.268,-901.367,-146.484,-975.098,999.512,312.500
1575280172.272,-966.309,-858.398,-951.660,999.512,386.230
1575280172.276,-21.484,665.527,-957.520,999.512,-977.051
1575280172.280,-1000.000,-768.066,-956.055,999.512,-997.070
1575280172.284,-115.723,346.191,54.688,999.512,982.422
1575280172.288,-958.008,-886.719,-975.098,997.559,-996.582
1575280172.292,-907.227,-1000.000,980.957,-998.535,999.512
1575280172.296,47.363,-204.590,981.445,-1000.000,999.512
1575280172.300,-1000.000,-807.617,-995.605,959.961,999.512
1575280172.304,-151.855,134.277,999.512,987.305,999.512
1575280172.308,-970.703,-1000.000,999.512,988.281,999.512
1575280172.311,-898.438,-998.047,999.512,973.145,-998.047
1575280172.315,147.461,-890.137,999.512,-865.234,983.887
1575280172.319,-1000.000,506.836,999.512,-124.512,-979.004
1575280172.323,-315.918,-87.891,999.512,-89.844,940.918
1575280172.327,966.309,-1000.000,999.512,-894.043,537.598
1575280172.331,-871.094,-871.582,999.512,992.676,701.172
1575280172.335,251.953,-1000.000,999.512,981.934,-980.469
1575280172.339,-1000.000,159.180,999.512,-536.621,-995.117
1575280172.343,-564.941,156.738,999.512,-379.883,835.938
1575280172.347,834.961,-1000.000,999.512,-959.961,85.938
1575280172.350,-825.684,-922.852,999.512,-953.125,0.000
1575280172.354,215.820,-1000.000,999.512,816.406,763.184
1575280172.358,-1000.000,334.473,999.512,-675.781,-932.617
1575280172.362,-798.828,354.004,999.512,-835.938,685.547
1575280172.366,551.270,-1000.000,999.512,649.414,-181.152
1575280172.370,-770.508,-917.969,999.512,-851.562,-168.457
1575280172.374,243.652,-1000.000,999.512,732.422,665.039
1575280172.378,-999.023,232.910,999.512,-634.766,-949.707
1575280172.382,-1000.000,446.289,999.512,-1000.000,759.766
1575280172.386,213.379,-1000.000,999.512,234.863,-15.137
1575280172.390,-745.117,-904.785,999.512,-833.008,-248.047
1575280172.393,446.289,-1000.000,999.512,794.434,432.129
1575280172.397,-885.254,-62.988,999.512,-515.625,976.074
1575280172.401,-1000.000,474.121,999.512,-1000.000,585.938
1575280172.405,64.453,-973.633,999.512,56.152,-350.098
1575280172.409,-846.191,-967.285,999.512,-902.344,-868.652
1575280172.413,844.727,-1000.000,999.512,985.352,-333.984
1575280172.417,-479.492,-85.449,-994.629,-209.961,411.133
1575280172.421,-1000.000,-765.625,931.641,-1000.000,132.812
1575280172.425,76.172,247.559,-864.746,79.102,-730.469
1575280172.429,-934.082,-1000.000,330.566,-958.008,-961.914
1575280172.432,-925.293,-632.324,-995.117,-878.906,-437.012
1575280172.436,20.996,826.660,-974.121,211.426,179.199
1575280172.440,-1000.000,-999.512,-934.082,-1000.000,81.055
1575280172.444,0.000,-861.328,-979.980,225.586,-600.098
1575280172.448,-947.266,106.445,-970.215,-917.969,-844.238
1575280172.452,-901.367,-247.559,-970.215,-904.297,-106.934
1575280172.456,253.418,-912.109,-970.215,318.848,823.730
1575280172.460,-1000.000,934.570,-970.215,-1000.000,950.195
1575280172.464,-170.898,-827.148,-970.215,158.203,202.148
1575280172.468,-966.309,102.539,-970.215,-914.551,-328.613
1575280172.472,-885.742,-639.648,-970.215,-923.828,131.348
1575280172.475,254.395,871.582,-970.215,517.578,783.691
1575280172.479,-1000.000,-994.629,-970.703,-1000.000,911.621
1575280172.483,-172.852,-876.953,-970.215,-50.293,243.652
1575280172.487,-964.844,197.266,-970.215,-915.527,-438.965
1575280172.491,-897.461,-943.359,-970.703,-954.102,-176.270
1575280172.495,265.625,491.211,-970.703,731.934,666.016
1575280172.499,-1000.000,-924.316,-970.703,-879.395,-957.520
1575280172.503,-424.316,-934.570,-978.516,-215.820,544.434
1575280172.507,922.363,259.766,-930.176,-916.992,-146.973
1575280172.511,-851.074,-1000.000,-1000.000,-976.074,246.094
1575280172.515,314.453,-230.469,-845.703,861.816,912.109
1575280172.518,-1000.000,-829.590,424.805,-715.332,-981.934
1575280172.522,-855.957,755.371,-909.180,-277.344,910.645
1575280172.526,489.746,-677.734,947.754,-923.340,521.484
1575280172.530,-757.812,-996.582,-999.023,-977.051,624.512
1575280172.534,276.855,-1000.000,-999.512,849.609,-994.141
1575280172.538,-929.688,-59.082,999.512,-709.473,995.605
1575280172.542,-1000.000,220.215,999.512,-665.039,888.184
1575280172.546,-159.668,-1000.000,999.512,847.656,201.660
1575280172.550,-785.156,-970.215,999.512,-870.117,-307.129
1575280172.554,372.559,-941.895,999.512,672.852,313.965
1575280172.557,-932.129,-975.586,999.512,-673.340,911.133
1575280172.561,-1000.000,-970.703,999.512,-1000.000,555.664
1575280172.565,-222.656,-970.703,999.512,79.590,-417.480
1575280172.569,-819.824,-969.238,999.512,-798.340,-793.945
1575280172.573,558.105,-971.680,999.512,647.949,-273.926
1575280172.577,-838.867,-967.773,999.512,-687.012,229.980
1575280172.581,-1000.000,-958.984,999.512,-1000.000,-102.539
1575280172.585,-173.828,-972.656,999.512,-155.762,-779.297
1575280172.589,-930.176,-898.438,999.512,-891.602,-1000.000
1575280172.593,961.914,-1000.000,999.512,856.934,-774.902
1575280172.597,-322.754,-252.441,999.512,-472.656,-187.988
1575280172.600,-1000.000,-891.602,999.512,-1000.000,-328.613
1575280172.604,-129.883,-208.008,999.512,-145.996,-872.070
1575280172.608,-988.770,-1000.000,999.512,-963.867,-994.141
1575280172.612,-888.672,-1000.000,-994.141,-939.453,-804.688
1575280172.616,133.789,-233.398,933.594,-88.379,-162.598
1575280172.620,-1000.000,-812.500,-874.512,-1000.000,-32.715
1575280172.624,-155.762,599.121,381.348,-167.969,-689.453
1575280172.628,-974.121,-841.797,-950.195,-995.117,-1000.000
1575280172.632,-882.812,-1000.000,-984.863,-882.812,-727.539
1575280172.636,253.906,208.984,-930.664,208.008,4.395
1575280172.639,-1000.000,-954.102,-980.957,-1000.000,216.309
1575280172.643,-169.434,-849.121,-970.215,-235.840,-373.535
1575280172.647,-969.238,117.676,-970.703,-995.605,-929.199
1575280172.651,-891.113,-370.605,-970.703,-875.488,-661.621
1575280172.655,326.660,-954.102,-970.215,272.949,251.953
1575280172.659,-1000.000,966.309,-970.215,-1000.000,692.383
1575280172.663,-302.734,-916.992,-970.215,-225.586,161.621
1575280172.667,983.398,727.539,-970.215,-996.582,-429.199
1575280172.671,-882.324,-115.723,-970.215,-889.160,-118.164
1575280172.675,458.496,802.246,-970.215,526.855,608.887
1575280172.679,-1000.000,-956.055,-970.215,-1000.000,979.980
1575280172.682,-515.625,-926.758,-970.215,-291.504,614.746
1575280172.686,894.043,340.820,-970.703,-964.844,-143.066
1575280172.690,-862.305,-1000.000,-970.703,-970.703,-172.852
1575280172.694,572.266,-180.176,-970.703,881.836,559.570
1575280172.698,-940.918,-961.426,-970.215,-682.129,-975.098
1575280172.702,-783.203,-896.973,-970.703,-461.914,665.527
1575280172.706,667.969,264.160,-970.215,-957.520,-215.332
1575280172.710,-842.285,-1000.000,-970.215,965.820,-247.070
1575280172.714,687.988,-381.836,-970.215,-895.020,532.715
1575280172.718,-707.520,952.148,-970.215,-240.723,988.281
1575280172.722,-1000.000,-858.887,-971.191,-675.781,675.781
1575280172.725,295.410,199.219,-971.680,928.223,-73.242
1575280172.729,-835.449,-1000.000,-909.668,994.629,-352.051
1575280172.733,822.754,-964.355,-1000.000,-889.648,320.801
1575280172.737,-470.703,312.988,-236.816,41.016,997.070
1575280172.741,-1000.000,-750.000,-965.820,-988.770,815.918
1575280172.745,15.137,25.391,994.629,507.812,-93.262
1575280172.749,-890.625,-996.582,967.773,-933.594,-416.016
1575280172.753,957.031,-1000.000,-992.676,-917.480,249.023
1575280172.757,-277.832,-169.922,999.512,210.449,915.527
1575280172.761,-1000.000,-916.992,999.512,-1000.000,840.332
1575280172.764,-145.996,-307.617,999.512,101.074,63.477
1575280172.768,-961.426,-1000.000,999.512,-920.898,-538.086
1575280172.772,-929.199,-1000.000,999.512,-916.016,-153.809
1575280172.776,-87.891,-324.219,999.512,264.648,750.977
1575280172.780,-1000.000,-965.332,999.512,-1000.000,864.258
1575280172.784,-145.508,-294.434,999.512,-162.598,-40.039
1575280172.788,-968.262,-1000.000,999.512,-962.891,-671.875
1575280172.792,-909.180,-973.633,999.512,-899.414,-248.047
1575280172.796,47.363,-863.770,999.512,263.672,653.320
1575280172.800,-1000.000,457.520,999.512,-1000.000,814.453
1575280172.804,-274.414,-259.766,999.512,-490.723,-124.023
1575280172.807,976.562,-1000.000,999.512,873.047,-742.188
1575280172.811,-876.953,-869.629,999.512,-835.449,-402.832
1575280172.815,213.379,-1000.000,999.512,203.125,429.199
1575280172.819,-1000.000,-28.809,999.512,-1000.000,759.766
1575280172.823,-494.629,-100.586,999.512,-938.477,130.371
1575280172.827,882.812,-1000.000,999.512,302.246,-715.332
1575280172.831,-839.844,-906.250,999.512,-749.023,-836.426
1575280172.835,234.375,-1000.000,999.512,173.828,41.504
1575280172.839,-1000.000,304.688,999.512,-982.910,596.680
1575280172.843,-628.418,344.727,-996.582,-1000.000,-96.191
1575280172.847,761.719,-1000.000,950.684,-126.465,-918.945
1575280172.850,-811.523,-1000.000,-926.758,-783.203,-896.973
1575280172.854,284.668,-588.867,585.938,415.527,-184.082
1575280172.858,-1000.000,758.789,-666.992,-904.785,458.984
1575280172.862,-721.191,-798.828,-1000.000,-1000.000,-77.637
1575280172.866,648.926,222.168,-930.664,-132.812,-909.180
1575280172.870,-812.500,-1000.000,-973.633,-912.598,-914.551
1575280172.874,574.219,-188.477,-971.191,938.477,-316.406
1575280172.878,-928.223,-916.504,-970.215,-333.008,399.902
1575280172.882,-803.223,979.004,-970.215,-1000.000,182.617
1575280172.886,670.898,-993.164,-970.215,-44.434,-701.660
1575280172.889,-906.250,669.922,-970.215,-975.098,-876.953
1575280172.893,923.340,771.484,-970.215,-890.137,-160.645
1575280172.897,-463.867,-937.500,-970.215,203.613,765.625
1575280172.901,-960.449,941.406,-970.215,-1000.000,756.348
1575280172.905,596.680,-866.211,-970.215,-82.520,-373.047
1575280172.909,-935.547,365.234,-970.703,-958.496,-726.074
1575280172.913,-945.312,292.480,-970.215,-887.207,118.164
1575280172.917,-90.332,-895.508,-970.215,346.680,889.648
1575280172.921,-1000.000,914.551,-970.703,-1000.000,823.730
1575280172.925,302.246,-807.129,-970.215,-40.527,5.371
1575280172.929,-913.574,29.297,-970.703,-935.059,-558.105
1575280172.932,-928.711,-439.941,-970.215,-941.895,-121.582
1575280172.936,130.371,-987.793,-970.215,693.848,728.516
1575280172.940,-1000.000,980.469,-970.215,-867.676,927.246
1575280172.944,9.766,-894.531,-970.215,-133.301,68.359
1575280172.948,-936.035,81.055,-970.215,-892.090,-490.723
1575280172.952,-905.762,-1000.000,-970.215,985.352,-6.348
1575280172.956,256.836,246.094,-970.215,962.891,690.918
1575280172.960,-1000.000,-817.871,-970.703,-526.367,941.895
1575280172.964,-171.387,852.539,-970.215,-238.770,255.859
1575280172.968,-965.820,-384.277,-970.215,-887.207,-500.488
1575280172.971,-888.672,-1000.000,-970.215,965.332,-271.484
1575280172.975,257.812,-200.195,-970.215,-945.801,588.379
1575280172.979,-1000.000,-806.152,-971.680,-371.094,974.609
1575280172.983,-229.980,432.129,-967.773,-341.309,294.922
1575280172.987,-984.375,-904.297,-913.086,-916.504,-456.055
1575280172.991,-890.625,-1000.000,-1000.000,973.145,-96.680
1575280172.995,261.719,-739.746,-145.020,-932.129,754.883
1575280172.999,-1000.000,834.473,-923.828,-337.891,-969.238
1575280173.003,-511.719,304.688,978.516,-517.090,677.246
1575280173.007,878.906,-1000.000,975.098,985.840,-15.137
1575280173.011,-832.031,-939.941,-994.629,-958.496,97.168
1575280173.014,199.707,-942.871,999.512,921.875,830.566
1575280173.018,-1000.000,-977.051,999.512,-372.559,-933.594
1575280173.022,-964.844,-970.215,999.512,-1000.000,666.504
1575280173.026,292.480,-970.215,999.512,208.496,-269.531
1575280173.030,-738.281,-970.215,999.512,-806.152,-400.879
1575280173.034,175.293,-970.215,999.512,708.496,332.031
1575280173.038,-979.980,-970.703,999.512,-595.215,980.469
1575280173.042,-1000.000,-970.215,999.512,-1000.000,699.219
1575280173.046,-106.934,-970.215,999.512,-153.320,-362.305
1575280173.050,-766.113,-970.215,999.512,-824.219,-762.695
1575280173.054,321.777,-970.215,999.512,591.309,39.062
1575280173.057,-946.289,-970.215,999.512,-767.578,881.836
1575280173.061,-1000.000,-970.215,999.512,-1000.000,606.934
1575280173.065,-226.074,-970.215,999.512,-322.266,-498.047
1575280173.069,-811.035,-970.215,999.512,-877.441,-887.207
1575280173.073,498.535,-970.215,999.512,589.355,-163.574
1575280173.077,-875.488,-970.215,999.512,-802.734,628.418
1575280173.081,-1000.000,-970.215,999.512,-1000.000,387.207
1575280173.085,-210.449,-981.445,999.512,-560.547,-589.355
1575280173.089,-886.719,-911.621,999.512,944.336,-1000.000
1575280173.093,806.152,-1000.000,999.512,747.559,-631.836
1575280173.096,-553.711,-791.504,999.512,-709.473,166.016
1575280173.100,-1000.000,9.766,999.512,-1000.000,115.234
1575280173.104,-219.238,-755.859,999.512,-667.969,-652.344
1575280173.108,-995.117,-1000.000,999.512,725.098,-1000.000
1575280173.112,-922.852,-1000.000,999.512,-940.918,-645.020
1575280173.116,-75.684,-384.277,999.512,-312.500,236.816
1575280173.120,-1000.000,-839.355,999.512,-1000.000,330.566
1575280173.124,-303.711,174.805,999.512,-620.605,-367.676
1575280173.128,948.730,-1000.000,999.512,705.078,-922.363
1575280173.132,-864.258,-1000.000,999.512,-823.242,-712.402
1575280173.136,233.398,-240.234,999.512,32.227,197.266
1575280173.139,-1000.000,-811.523,999.512,-1000.000,376.465
1575280173.143,-437.500,536.133,-999.512,-632.812,-264.648
1575280173.147,920.898,-850.098,996.582,709.473,-855.957
1575280173.151,-853.027,-1000.000,979.004,-803.711,-703.613
1575280173.155,241.699,-162.109,985.352,206.543,213.379
1575280173.159,-1000.000,-960.938,645.508,-1000.000,613.770
1575280173.163,-582.520,-954.102,-434.082,-752.930,40.039
1575280173.167,802.246,-146.973,-1000.000,603.516,-687.500
1575280173.171,-820.312,-1000.000,-938.477,-786.133,-508.789
1575280173.175,368.164,-128.906,-965.820,229.492,271.484
1575280173.179,-1000.000,-991.699,-972.168,-1000.000,582.031
1575280173.182,-809.082,-879.395,-970.215,-812.988,144.531
1575280173.186,561.035,254.395,-970.215,513.184,-625.488
1575280173.190,-795.898,-1000.000,-970.215,-776.855,-605.469
1575280173.194,556.641,-172.852,-970.215,416.016,210.938
1575280173.198,-838.379,-964.844,-970.215,-946.777,750.977
1575280173.202,-1000.000,-897.461,-970.215,-966.797,493.164
1575280173.206,252.930,265.625,-971.680,333.496,-295.410
1575280173.210,-820.312,-1000.000,-969.238,-793.457,-276.855
1575280173.214,773.438,-423.828,-927.246,629.395,496.582
1575280173.218,-537.598,930.664,-1000.000,-726.074,961.914
1575280173.221,-1000.000,-854.492,-416.016,-1000.000,601.562
1575280173.225,-1.953,225.098,502.441,99.609,-261.719
1575280173.229,-903.320,-1000.000,-15.137,-841.797,-399.414
1575280173.233,979.980,-810.059,-604.492,814.941,180.176
1575280173.237,-240.234,539.062,18.066,-483.398,554.688
1575280173.241,-1000.000,-769.043,979.004,-1000.000,316.895
1575280173.245,-142.090,178.223,906.738,-90.820,-296.387
1575280173.249,-968.262,-1000.000,-307.129,-924.316,-658.203
1575280173.253,-914.551,-1000.000,-1000.000,992.188,-215.332
1575280173.257,-25.391,168.457,-928.711,-232.910,538.086
1575280173.261,-1000.000,-734.863,-965.332,-1000.000,450.684
1575280173.264,-146.484,174.805,-977.539,-145.508,-290.039
1575280173.268,-972.168,-976.074,-948.242,-963.867,-555.176
1575280173.272,-902.832,-1000.000,-958.008,-927.246,14.160
1575280173.276,119.141,-203.613,-973.145,-39.062,744.141
1575280173.280,-1000.000,-791.504,144.531,-1000.000,585.938
1575280173.284,-351.562,228.516,-916.504,-243.652,-90.332
1575280173.288,947.266,-989.746,962.891,-999.512,-549.805
1575280173.292,-863.770,-1000.000,988.281,-904.297,-252.930
1575280173.296,235.840,-275.391,-997.070,40.527,583.496
1575280173.300,-1000.000,-816.406,999.512,-1000.000,658.203
1575280173.303,-624.023,195.312,999.512,-586.426,22.949
1575280173.307,771.973,-1000.000,999.512,763.672,-496.094
1575280173.311,-810.547,-1000.000,999.512,-813.477,-187.988
1575280173.315,203.125,-660.156,999.512,118.164,562.012
1575280173.319,-1000.000,955.566,999.512,-1000.000,606.445
1575280173.323,-888.672,270.020,999.512,-955.078,-56.641
1575280173.327,425.781,-1000.000,999.512,265.137,-790.527
1575280173.331,-755.859,-998.535,999.512,-743.164,-762.207
1575280173.335,181.641,-800.781,999.512,159.668,61.035
1575280173.339,-1000.000,793.457,999.512,-998.047,365.723
1575280173.343,-997.559,591.797,999.512,-1000.000,-10.742
1575280173.346,206.055,-915.527,999.512,-28.809,-680.176
1575280173.350,-738.770,-1000.000,999.512,-757.324,-829.102
1575280173.354,370.117,-771.484,-994.629,178.711,-43.945
1575280173.358,-937.500,595.215,950.684,-994.629,445.801
1575280173.362,-1000.000,-857.910,-933.594,-1000.000,44.922
1575280173.366,116.211,-210.938,658.203,-199.219,-687.012
1575280173.370,-782.227,-1000.000,-608.887,-790.039,-667.969
1575280173.374,637.695,-733.887,-1000.000,318.359,52.246
1575280173.378,-730.957,560.547,-931.641,-958.496,496.094
1575280173.382,-1000.000,-777.832,-904.785,-1000.000,264.160
1575280173.386,52.246,179.199,-922.852,-217.773,-376.953
1575280173.389,-881.348,-1000.000,-981.934,-825.195,-761.230
1575280173.393,939.453,-798.828,-966.797,581.543,-170.410
1575280173.397,-318.359,524.414,-970.703,-797.363,562.012
1575280173.401,-1000.000,-779.785,-970.215,-1000.000,381.348
1575280173.405,-18.066,416.016,-970.215,-211.914,-503.906
1575280173.409,-945.801,-1000.000,-970.215,-943.359,-851.074
1575280173.413,-922.852,-737.793,-970.215,957.520,-260.742
1575280173.417,27.344,754.395,-970.215,-314.453,488.281
1575280173.421,-1000.000,-984.863,-970.215,-1000.000,425.781
1575280173.425,-139.160,-869.629,-970.215,-198.242,-397.949
1575280173.428,-981.445,15.137,-970.215,988.770,-819.336
1575280173.432,-881.348,-296.875,-970.215,-887.207,-380.859
1575280173.436,254.395,-903.320,-970.215,143.066,438.965
1575280173.440,-1000.000,933.105,-970.215,-1000.000,710.449
1575280173.444,-172.852,-826.660,-970.215,-297.852,-44.922
1575280173.448,-965.332,179.688,-970.215,969.238,-588.867
1575280173.452,-885.742,-350.098,-970.215,-869.629,-122.559
1575280173.456,254.395,-976.562,-970.215,269.531,653.809
1575280173.460,-1000.000,969.727,-970.215,-1000.000,946.777
1575280173.464,-172.852,-881.348,-970.703,-427.734,238.281
1575280173.468,-964.844,239.746,-970.215,902.344,-478.516
1575280173.471,-893.555,-1000.000,-970.703,-862.305,-156.738
1575280173.475,262.207,235.352,-970.215,501.465,649.902
1575280173.479,-1000.000,-914.551,-970.215,-998.535,989.746
1575280173.483,-318.848,-923.828,-970.215,-656.250,493.652
1575280173.487,969.727,277.344,-970.215,770.508,-359.375
1575280173.491,-874.023,-1000.000,-970.215,-896.973,-408.203
1575280173.495,383.301,-150.879,-970.215,801.758,404.785
1575280173.499,-1000.000,-959.473,-970.215,-537.598,963.379
1575280173.503,-543.945,-889.160,-970.215,-1000.000,520.020
1575280173.507,863.281,256.348,-970.215,289.551,-402.832
1575280173.510,-841.797,-1000.000,-970.703,-903.809,-325.684
1575280173.514,481.934,-176.270,-970.215,-992.188,350.586
1575280173.518,-962.891,-968.750,-970.215,-110.840,809.570
1575280173.522,-855.469,-893.555,-970.215,-1000.000,569.824
1575280173.526,538.086,298.340,-970.215,41.016,-380.859
1575280173.530,-810.059,-1000.000,-970.215,-941.406,-610.840
1575280173.534,627.930,-360.840,-970.215,-916.992,85.938
1575280173.538,-754.395,949.707,-970.215,138.184,724.121
1575280173.542,-1000.000,-875.488,-970.215,-1000.000,562.012
1575280173.546,221.680,532.227,-970.703,-139.648,-403.809
1575280173.550,-844.727,-1000.000,-970.215,-968.262,-791.992
1575280173.553,858.887,-516.602,-970.215,-892.090,-119.141
1575280173.557,-428.223,962.891,-970.215,240.723,651.367
1575280173.561,-1000.000,997.559,-970.215,-1000.000,561.035
1575280173.565,50.293,-918.457,-970.215,-266.602,-464.355
1575280173.569,-919.922,-283.203,-970.215,993.164,-899.414
1575280173.573,-957.031,-470.215,-970.215,-876.465,-319.824
1575280173.577,-85.449,-936.035,-970.703,286.133,466.797
1575280173.581,-1000.000,938.477,-970.215,-1000.000,587.891
1575280173.585,-124.512,-836.426,-970.215,-354.980,-157.227
1575280173.589,-972.168,104.492,-970.215,950.195,-745.117
1575280173.593,-895.508,-624.512,-970.215,-871.582,-416.504
1575280173.596,105.957,863.770,-970.215,423.340,496.094
1575280173.600,-1000.000,-980.469,-970.215,-1000.000,842.285
1575280173.604,-152.344,-913.574,-970.215,-617.188,15.137
1575280173.608,-976.562,161.621,-970.215,776.855,-704.590
1575280173.612,-882.324,-1000.000,-970.703,-861.328,-299.316
1575280173.616,254.395,112.305,-970.703,642.090,507.812
1575280173.620,-1000.000,-891.113,-970.215,-824.707,866.211
1575280173.624,-172.852,-950.684,-970.215,-818.848,213.379
1575280173.628,-964.844,23.438,-970.703,631.836,-596.191
1575280173.632,-895.020,-1000.000,-970.703,-893.066,-332.520
1575280173.635,264.160,-178.711,-970.215,870.117,510.254
1575280173.639,-1000.000,-912.109,-970.215,-508.301,942.871
1575280173.643,-367.188,969.238,-970.703,-943.359,399.902
1575280173.647,957.031,-271.973,-970.215,554.688,-519.531
1575280173.651,-866.699,-1000.000,-970.215,-918.945,-381.836
1575280173.655,268.066,-405.273,-970.703,-990.234,393.555
1575280173.659,-1000.000,-968.750,-970.215,-245.117,786.621
1575280173.663,-577.637,861.816,-970.215,-1000.000,479.004
1575280173.667,811.523,-606.934,-970.215,451.172,-290.039
1575280173.671,-819.336,-1000.000,-970.215,-903.809,-328.613
1575280173.675,339.355,-1000.000,-970.703,995.605,526.855
1575280173.678,-997.559,53.223,-970.215,-101.562,-950.684
1575280173.682,-925.293,316.895,-974.609,-1000.000,659.180
1575280173.686,384.277,-1000.000,-952.637,103.027,-299.805
1575280173.690,-757.324,-905.762,-948.730,-909.180,-465.332
1575280173.694,424.316,-1000.000,-997.559,-965.820,272.949
1575280173.698,-889.648,-111.816,73.730,4.883,864.746
1575280173.702,-1000.000,270.508,-923.828,-1000.000,568.359
1575280173.706,44.434,-1000.000,968.262,-46.875,-362.305
1575280173.710,-778.320,-910.645,984.375,-941.406,-715.332
1575280173.714,581.055,-1000.000,-996.094,-920.410,53.223
1575280173.718,-770.508,-376.953,999.512,114.258,886.230
1575280173.721,-1000.000,168.945,999.512,-1000.000,780.762
1575280173.725,-178.223,-985.840,999.512,-163.574,-82.031
1575280173.729,-862.305,-1000.000,999.512,-949.219,-355.469
1575280173.733,744.141,-925.781,999.512,-927.246,335.938
1575280173.737,-636.230,-978.516,999.512,40.527,953.613
1575280173.741,-1000.000,-970.215,999.512,-1000.000,860.352
1575280173.745,-172.363,-970.215,999.512,-264.160,-14.160
1575280173.749,-909.668,-970.215,999.512,-989.746,-553.711
1575280173.753,892.090,-970.215,999.512,-917.480,-132.324
1575280173.757,-406.738,-970.215,999.512,-11.230,611.816
1575280173.760,-1000.000,-970.215,999.512,-1000.000,722.656
1575280173.764,-398.926,-970.215,999.512,-543.945,-42.480
1575280173.768,948.730,-970.215,999.512,822.266,-719.727
1575280173.772,-933.105,-970.215,999.512,-853.516,-312.988
1575280173.776,-212.402,-970.215,999.512,-76.660,676.758
1575280173.780,-1000.000,-970.215,999.512,-1000.000,814.453
1575280173.784,-765.625,-970.215,999.512,-981.445,-53.711
1575280173.788,568.359,-970.215,999.512,229.492,-737.793
1575280173.792,-803.711,-970.215,999.512,-812.988,-279.297
1575280173.796,-125.488,-970.703,999.512,-167.969,604.492
1575280173.800,-1000.000,-970.215,999.512,-1000.000,-994.629
1575280173.803,-1000.000,-970.215,999.512,-1000.000,983.887
1575280173.807,104.980,-970.215,999.512,38.086,992.676
1575280173.811,-739.746,-970.215,999.512,-774.414,-998.047
1575280173.815,51.758,-970.215,999.512,8.301,999.512
1575280173.819,-1000.000,-970.215,999.512,-1000.000,999.512
1575280173.823,-1000.000,-970.215,999.512,-1000.000,999.512
1575280173.827,-106.934,-971.680,999.512,40.039,999.512
1575280173.831,-763.184,-963.867,999.512,-748.047,999.512
1575280173.835,184.082,-989.746,999.512,160.645,999.512
1575280173.839,-996.582,-899.414,999.512,-1000.000,999.512
1575280173.842,-1000.000,-877.930,999.512,-1000.000,999.512
1575280173.846,-227.539,-979.492,999.512,-98.145,999.512
1575280173.850,-796.875,-898.926,999.512,-769.531,999.512
1575280173.854,238.770,-1000.000,999.512,185.059,-999.023
1575280173.858,-993.652,19.531,999.512,-996.582,997.559
1575280173.862,-1000.000,638.672,999.512,-1000.000,951.660
1575280173.866,-234.375,-869.629,999.512,-226.074,-913.574
1575280173.870,-812.500,-1000.000,999.512,-797.363,337.402
1575280173.874,534.668,-885.742,-997.559,211.426,-891.113
1575280173.878,-854.004,308.105,988.281,-995.605,-953.125
1575280173.882,-1000.000,-749.512,958.496,-1000.000,-875.488
1575280173.885,-170.410,258.789,-907.227,-328.613,-976.074
1575280173.889,-941.895,-1000.000,52.734,-836.426,-973.633
1575280173.893,998.535,-495.117,-1000.000,319.336,-967.773
1575280173.897,-256.836,952.148,-939.453,-963.867,-970.703
1575280173.901,-1000.000,977.539,-953.125,-1000.000,-970.215
1575280173.905,-129.883,-860.352,-975.098,-375.977,-970.215
1575280173.909,-988.281,15.137,-970.703,-934.082,-970.215
1575280173.913,-887.207,-275.391,-970.703,791.992,-970.215
1575280173.917,149.414,-895.996,-970.215,-595.215,-970.215
1575280173.921,-1000.000,935.059,-970.215,-1000.000,-970.215
1575280173.925,-157.715,-831.543,-970.215,-419.922,-970.215
1575280173.928,-973.145,182.617,-970.215,925.781,-970.215
1575280173.932,-887.695,-224.121,-970.215,-920.410,-970.215
1575280173.936,259.766,-929.199,-970.215,-160.645,-970.215
1575280173.940,-1000.000,948.730,-970.215,-1000.000,-970.215
1575280173.944,-257.324,-869.629,-970.215,-466.309,-970.215
1575280173.948,-993.652,226.562,-970.215,860.840,-970.215
1575280173.952,-883.789,-1000.000,-970.215,-848.633,-970.215
1575280173.956,258.789,270.020,-970.215,75.195,-970.215
1575280173.960,-1000.000,-909.180,-970.215,-1000.000,-970.215
1575280173.964,-425.781,-926.270,-970.215,-689.941,-972.656
1575280173.967,916.992,277.344,-970.215,650.879,-952.148
1575280173.971,-854.004,-1000.000,-970.215,-789.551,-1000.000
1575280173.975,389.160,-122.070,-970.215,185.059,-852.539
1575280173.979,-1000.000,-948.730,-970.215,-1000.000,-587.891
1575280173.983,-723.633,-898.926,-970.215,-927.246,-853.516
1575280173.987,677.246,226.562,-970.215,341.797,-995.117
1575280173.991,-799.316,-1000.000,-970.215,-746.582,-956.055
1575280173.995,445.312,-247.559,-970.215,164.551,-569.336
1575280173.999,-900.391,-942.383,-970.215,-989.746,-60.547
1575280174.003,-1000.000,-953.613,-973.633,-1000.000,-371.582
1575280174.007,193.848,-143.066,-958.984,-57.617,-916.016
1575280174.010,-754.883,-1000.000,-930.664,-761.719,-919.434
1575280174.014,498.535,-836.426,-1000.000,190.430,-360.352
1575280174.018,-834.961,515.137,-16.602,-990.234,75.684
1575280174.022,-1000.000,-847.656,-911.621,-1000.000,-316.895
1575280174.026,-82.520,-297.363,967.773,-227.539,-861.328
1575280174.030,-818.359,-1000.000,982.422,-797.363,-968.262
1575280174.034,661.133,-1000.000,-996.094,240.723,-492.676
1575280174.038,-708.496,19.531,999.512,-979.492,137.207
1575280174.042,-1000.000,955.078,999.512,-1000.000,-52.246
1575280174.046,-182.129,-594.238,999.512,-449.219,-730.957
1575280174.049,-891.113,-1000.000,999.512,-895.508,-988.770
1575280174.053,838.867,-1000.000,999.512,295.410,-447.266
1575280174.057,-515.137,-143.555,999.512,-1000.000,284.180
1575280174.061,-1000.000,910.156,999.512,-988.281,152.832
1575280174.065,-153.809,-587.891,999.512,-895.020,-593.750
1575280174.069,-948.242,-1000.000,999.512,637.207,-1000.000
1575280174.073,-977.539,-1000.000,999.512,399.902,-580.078
1575280174.077,-200.195,-282.227,999.512,-1000.000,181.641
1575280174.081,-1000.000,-870.605,999.512,-910.156,100.586
1575280174.085,-215.332,-154.785,999.512,-1000.000,-568.359
1575280174.089,-999.512,-1000.000,999.512,143.555,-990.723
1575280174.092,-898.438,-1000.000,999.512,460.449,-729.492
1575280174.096,36.133,-332.520,999.512,-1000.000,140.625
1575280174.100,-1000.000,-820.801,999.512,-919.434,277.344
1575280174.104,-299.316,214.355,999.512,-1000.000,-556.641
1575280174.108,960.449,-1000.000,999.512,-38.574,-1000.000
1575280174.112,-865.723,-1000.000,999.512,686.035,-751.465
1575280174.116,252.441,-249.023,-995.117,-835.449,46.387
1575280174.120,-1000.000,-838.379,938.477,-979.980,494.629
1575280174.124,-409.180,642.578,-890.137,-1000.000,-161.621
1575280174.128,938.477,-753.906,437.500,-196.289,-922.363
1575280174.132,-857.422,-1000.000,-878.418,-916.504,-787.598
1575280174.135,247.070,-131.348,-996.094,-252.441,13.672
1575280174.139,-1000.000,996.094,-929.199,-1000.000,520.020
1575280174.143,-461.426,-882.812,-979.492,-1000.000,-115.234
1575280174.147,894.043,210.449,-970.215,-251.953,-957.520
1575280174.151,-848.633,-1000.000,-970.215,-794.922,-791.992
1575280174.155,458.984,-163.086,-970.215,184.082,32.715
1575280174.159,-1000.000,-972.656,-970.215,-1000.000,702.637
1575280174.163,-518.555,-882.324,-970.215,-1000.000,259.277
1575280174.167,900.879,319.824,-970.215,-246.094,-699.219
